Wavelength [nm]	Wavenumbers [1/cm]	trans_azobenzene_epsilons
250.000	40000.00	2377
250.100	39984.01	2376
250.200	39968.03	2373
250.300	39952.06	2372
250.400	39936.10	2372
250.500	39920.16	2369
250.600	39904.23	2367
250.700	39888.31	2368
250.800	39872.41	2367
250.900	39856.52	2365
251.000	39840.64	2364
251.100	39824.77	2365
251.200	39808.92	2364
251.300	39793.08	2366
251.400	39777.25	2369
251.500	39761.43	2368
251.600	39745.63	2366
251.700	39729.84	2369
251.800	39714.06	2370
251.900	39698.29	2371
252.000	39682.54	2374
252.100	39666.80	2376
252.200	39651.07	2376
252.300	39635.35	2378
252.400	39619.65	2380
252.500	39603.96	2383
252.600	39588.28	2385
252.700	39572.62	2387
252.800	39556.96	2391
252.900	39541.32	2390
253.000	39525.69	2396
253.100	39510.08	2399
253.200	39494.47	2402
253.300	39478.88	2407
253.400	39463.30	2411
253.500	39447.73	2413
253.600	39432.18	2416
253.700	39416.63	2421
253.800	39401.10	2426
253.900	39385.58	2430
254.000	39370.08	2435
254.100	39354.58	2440
254.200	39339.10	2442
254.300	39323.63	2447
254.400	39308.18	2454
254.500	39292.73	2459
254.600	39277.30	2463
254.700	39261.88	2470
254.800	39246.47	2476
254.900	39231.07	2479
255.000	39215.69	2485
255.100	39200.31	2493
255.200	39184.95	2497
255.300	39169.60	2505
255.400	39154.27	2512
255.500	39138.94	2519
255.600	39123.63	2524
255.700	39108.33	2531
255.800	39093.04	2537
255.900	39077.76	2543
256.000	39062.50	2553
256.100	39047.25	2560
256.200	39032.01	2565
256.300	39016.78	2574
256.400	39001.56	2583
256.500	38986.35	2590
256.600	38971.16	2597
256.700	38955.98	2605
256.800	38940.81	2616
256.900	38925.65	2622
257.000	38910.51	2630
257.100	38895.37	2640
257.200	38880.25	2646
257.300	38865.14	2657
257.400	38850.04	2665
257.500	38834.95	2674
257.600	38819.88	2682
257.700	38804.81	2692
257.800	38789.76	2701
257.900	38774.72	2710
258.000	38759.69	2720
258.100	38744.67	2732
258.200	38729.67	2740
258.300	38714.67	2750
258.400	38699.69	2760
258.500	38684.72	2770
258.600	38669.76	2780
258.700	38654.81	2791
258.800	38639.88	2803
258.900	38624.95	2811
259.000	38610.04	2822
259.100	38595.14	2834
259.200	38580.25	2846
259.300	38565.37	2857
259.400	38550.50	2870
259.500	38535.65	2881
259.600	38520.80	2892
259.700	38505.97	2904
259.800	38491.15	2914
259.900	38476.34	2926
260.000	38461.54	2939
260.100	38446.75	2953
260.200	38431.98	2965
260.300	38417.21	2976
260.400	38402.46	2991
260.500	38387.72	3002
260.600	38372.99	3015
260.700	38358.27	3030
260.800	38343.56	3044
260.900	38328.86	3056
261.000	38314.18	3070
261.100	38299.50	3085
261.200	38284.84	3097
261.300	38270.19	3110
261.400	38255.55	3127
261.500	38240.92	3140
261.600	38226.30	3152
261.700	38211.69	3166
261.800	38197.10	3182
261.900	38182.51	3197
262.000	38167.94	3211
262.100	38153.38	3227
262.200	38138.83	3240
262.300	38124.29	3256
262.400	38109.76	3273
262.500	38095.24	3288
262.600	38080.73	3300
262.700	38066.24	3318
262.800	38051.75	3333
262.900	38037.28	3348
263.000	38022.81	3363
263.100	38008.36	3383
263.200	37993.92	3396
263.300	37979.49	3416
263.400	37965.07	3433
263.500	37950.66	3449
263.600	37936.27	3465
263.700	37921.88	3483
263.800	37907.51	3499
263.900	37893.14	3513
264.000	37878.79	3533
264.100	37864.45	3552
264.200	37850.11	3568
264.300	37835.79	3586
264.400	37821.48	3607
264.500	37807.18	3624
264.600	37792.89	3643
264.700	37778.62	3661
264.800	37764.35	3680
264.900	37750.09	3696
265.000	37735.85	3716
265.100	37721.61	3736
265.200	37707.39	3751
265.300	37693.18	3772
265.400	37678.98	3793
265.500	37664.78	3812
265.600	37650.60	3829
265.700	37636.43	3852
265.800	37622.27	3870
265.900	37608.12	3889
266.000	37593.98	3910
266.100	37579.86	3929
266.200	37565.74	3947
266.300	37551.63	3969
266.400	37537.54	3989
266.500	37523.45	4007
266.600	37509.38	4029
266.700	37495.31	4052
266.800	37481.26	4073
266.900	37467.22	4092
267.000	37453.18	4118
267.100	37439.16	4138
267.200	37425.15	4160
267.300	37411.15	4185
267.400	37397.16	4208
267.500	37383.18	4227
267.600	37369.21	4252
267.700	37355.25	4274
267.800	37341.30	4293
267.900	37327.36	4315
268.000	37313.43	4340
268.100	37299.52	4363
268.200	37285.61	4383
268.300	37271.71	4408
268.400	37257.82	4433
268.500	37243.95	4456
268.600	37230.08	4480
268.700	37216.23	4507
268.800	37202.38	4526
268.900	37188.55	4554
269.000	37174.72	4579
269.100	37160.91	4601
269.200	37147.10	4623
269.300	37133.31	4650
269.400	37119.52	4675
269.500	37105.75	4696
269.600	37091.99	4723
269.700	37078.24	4750
269.800	37064.49	4775
269.900	37050.76	4800
270.000	37037.04	4827
270.100	37023.32	4849
270.200	37009.62	4877
270.300	36995.93	4902
270.400	36982.25	4929
270.500	36968.58	4953
270.600	36954.92	4980
270.700	36941.26	5009
270.800	36927.62	5031
270.900	36913.99	5060
271.000	36900.37	5086
271.100	36886.76	5114
271.200	36873.16	5141
271.300	36859.57	5170
271.400	36845.98	5199
271.500	36832.41	5226
271.600	36818.85	5255
271.700	36805.30	5281
271.800	36791.76	5309
271.900	36778.23	5337
272.000	36764.71	5367
272.100	36751.19	5394
272.200	36737.69	5424
272.300	36724.20	5450
272.400	36710.72	5482
272.500	36697.25	5510
272.600	36683.79	5540
272.700	36670.33	5570
272.800	36656.89	5602
272.900	36643.46	5629
273.000	36630.04	5659
273.100	36616.62	5688
273.200	36603.22	5719
273.300	36589.83	5751
273.400	36576.44	5779
273.500	36563.07	5811
273.600	36549.71	5840
273.700	36536.35	5872
273.800	36523.01	5903
273.900	36509.68	5936
274.000	36496.35	5966
274.100	36483.04	5999
274.200	36469.73	6030
274.300	36456.43	6062
274.400	36443.15	6093
274.500	36429.87	6126
274.600	36416.61	6157
274.700	36403.35	6187
274.800	36390.10	6223
274.900	36376.86	6254
275.000	36363.64	6291
275.100	36350.42	6322
275.200	36337.21	6355
275.300	36324.01	6388
275.400	36310.82	6425
275.500	36297.64	6457
275.600	36284.47	6489
275.700	36271.31	6524
275.800	36258.16	6557
275.900	36245.02	6591
276.000	36231.88	6625
276.100	36218.76	6660
276.200	36205.65	6690
276.300	36192.54	6728
276.400	36179.45	6763
276.500	36166.37	6798
276.600	36153.29	6830
276.700	36140.22	6872
276.800	36127.17	6905
276.900	36114.12	6939
277.000	36101.08	6976
277.100	36088.05	7013
277.200	36075.04	7050
277.300	36062.03	7083
277.400	36049.03	7121
277.500	36036.04	7152
277.600	36023.05	7190
277.700	36010.08	7228
277.800	35997.12	7266
277.900	35984.17	7302
278.000	35971.22	7341
278.100	35958.29	7377
278.200	35945.36	7414
278.300	35932.45	7454
278.400	35919.54	7489
278.500	35906.64	7529
278.600	35893.75	7565
278.700	35880.88	7602
278.800	35868.01	7639
278.900	35855.15	7678
279.000	35842.29	7717
279.100	35829.45	7758
279.200	35816.62	7793
279.300	35803.80	7838
279.400	35790.98	7877
279.500	35778.18	7914
279.600	35765.38	7953
279.700	35752.59	7992
279.800	35739.81	8032
279.900	35727.05	8071
280.000	35714.29	8112
280.100	35701.54	8149
280.200	35688.79	8188
280.300	35676.06	8228
280.400	35663.34	8273
280.500	35650.62	8311
280.600	35637.92	8356
280.700	35625.22	8395
280.800	35612.54	8436
280.900	35599.86	8474
281.000	35587.19	8517
281.100	35574.53	8557
281.200	35561.88	8595
281.300	35549.24	8641
281.400	35536.60	8681
281.500	35523.98	8721
281.600	35511.36	8763
281.700	35498.76	8810
281.800	35486.16	8846
281.900	35473.57	8892
282.000	35460.99	8935
282.100	35448.42	8977
282.200	35435.86	9017
282.300	35423.31	9061
282.400	35410.76	9103
282.500	35398.23	9142
282.600	35385.70	9190
282.700	35373.19	9232
282.800	35360.68	9273
282.900	35348.18	9316
283.000	35335.69	9364
283.100	35323.21	9407
283.200	35310.73	9454
283.300	35298.27	9498
283.400	35285.82	9542
283.500	35273.37	9585
283.600	35260.93	9632
283.700	35248.50	9673
283.800	35236.08	9717
283.900	35223.67	9760
284.000	35211.27	9808
284.100	35198.87	9853
284.200	35186.49	9895
284.300	35174.11	9944
284.400	35161.74	9988
284.500	35149.38	1.004E4
284.600	35137.03	1.008E4
284.700	35124.69	1.013E4
284.800	35112.36	1.017E4
284.900	35100.04	1.022E4
285.000	35087.72	1.026E4
285.100	35075.41	1.031E4
285.200	35063.11	1.035E4
285.300	35050.82	1.04E4
285.400	35038.54	1.045E4
285.500	35026.27	1.049E4
285.600	35014.01	1.054E4
285.700	35001.75	1.059E4
285.800	34989.50	1.064E4
285.900	34977.26	1.068E4
286.000	34965.03	1.073E4
286.100	34952.81	1.078E4
286.200	34940.60	1.083E4
286.300	34928.40	1.088E4
286.400	34916.20	1.092E4
286.500	34904.01	1.097E4
286.600	34891.84	1.101E4
286.700	34879.67	1.107E4
286.800	34867.50	1.111E4
286.900	34855.35	1.116E4
287.000	34843.21	1.121E4
287.100	34831.07	1.126E4
287.200	34818.94	1.131E4
287.300	34806.82	1.136E4
287.400	34794.71	1.14E4
287.500	34782.61	1.145E4
287.600	34770.51	1.15E4
287.700	34758.43	1.155E4
287.800	34746.35	1.16E4
287.900	34734.28	1.164E4
288.000	34722.22	1.17E4
288.100	34710.17	1.174E4
288.200	34698.13	1.18E4
288.300	34686.09	1.184E4
288.400	34674.06	1.19E4
288.500	34662.05	1.194E4
288.600	34650.03	1.2E4
288.700	34638.03	1.204E4
288.800	34626.04	1.209E4
288.900	34614.05	1.214E4
289.000	34602.08	1.219E4
289.100	34590.11	1.224E4
289.200	34578.15	1.228E4
289.300	34566.19	1.234E4
289.400	34554.25	1.238E4
289.500	34542.31	1.243E4
289.600	34530.39	1.248E4
289.700	34518.47	1.254E4
289.800	34506.56	1.258E4
289.900	34494.65	1.263E4
290.000	34482.76	1.268E4
290.100	34470.87	1.273E4
290.200	34458.99	1.278E4
290.300	34447.12	1.283E4
290.400	34435.26	1.288E4
290.500	34423.41	1.293E4
290.600	34411.56	1.298E4
290.700	34399.72	1.303E4
290.800	34387.90	1.308E4
290.900	34376.07	1.313E4
291.000	34364.26	1.318E4
291.100	34352.46	1.323E4
291.200	34340.66	1.328E4
291.300	34328.87	1.333E4
291.400	34317.09	1.339E4
291.500	34305.32	1.343E4
291.600	34293.55	1.347E4
291.700	34281.80	1.353E4
291.800	34270.05	1.358E4
291.900	34258.31	1.363E4
292.000	34246.58	1.368E4
292.100	34234.85	1.373E4
292.200	34223.13	1.378E4
292.300	34211.43	1.383E4
292.400	34199.73	1.388E4
292.500	34188.03	1.393E4
292.600	34176.35	1.398E4
292.700	34164.67	1.403E4
292.800	34153.01	1.408E4
292.900	34141.35	1.412E4
293.000	34129.69	1.418E4
293.100	34118.05	1.423E4
293.200	34106.41	1.428E4
293.300	34094.78	1.432E4
293.400	34083.16	1.438E4
293.500	34071.55	1.442E4
293.600	34059.95	1.448E4
293.700	34048.35	1.452E4
293.800	34036.76	1.458E4
293.900	34025.18	1.463E4
294.000	34013.61	1.468E4
294.100	34002.04	1.473E4
294.200	33990.48	1.478E4
294.300	33978.93	1.483E4
294.400	33967.39	1.488E4
294.500	33955.86	1.493E4
294.600	33944.33	1.498E4
294.700	33932.81	1.503E4
294.800	33921.30	1.508E4
294.900	33909.80	1.513E4
295.000	33898.31	1.518E4
295.100	33886.82	1.523E4
295.200	33875.34	1.528E4
295.300	33863.87	1.534E4
295.400	33852.40	1.538E4
295.500	33840.95	1.543E4
295.600	33829.50	1.549E4
295.700	33818.06	1.554E4
295.800	33806.63	1.559E4
295.900	33795.20	1.564E4
296.000	33783.78	1.569E4
296.100	33772.37	1.573E4
296.200	33760.97	1.579E4
296.300	33749.58	1.584E4
296.400	33738.19	1.589E4
296.500	33726.81	1.594E4
296.600	33715.44	1.6E4
296.700	33704.08	1.605E4
296.800	33692.72	1.609E4
296.900	33681.37	1.615E4
297.000	33670.03	1.62E4
297.100	33658.70	1.625E4
297.200	33647.38	1.629E4
297.300	33636.06	1.635E4
297.400	33624.75	1.64E4
297.500	33613.45	1.645E4
297.600	33602.15	1.65E4
297.700	33590.86	1.656E4
297.800	33579.58	1.66E4
297.900	33568.31	1.666E4
298.000	33557.05	1.671E4
298.100	33545.79	1.676E4
298.200	33534.54	1.681E4
298.300	33523.30	1.686E4
298.400	33512.06	1.692E4
298.500	33500.84	1.696E4
298.600	33489.62	1.701E4
298.700	33478.41	1.706E4
298.800	33467.20	1.711E4
298.900	33456.01	1.717E4
299.000	33444.82	1.722E4
299.100	33433.63	1.727E4
299.200	33422.46	1.733E4
299.300	33411.29	1.738E4
299.400	33400.13	1.742E4
299.500	33388.98	1.746E4
299.600	33377.84	1.752E4
299.700	33366.70	1.757E4
299.800	33355.57	1.762E4
299.900	33344.45	1.767E4
300.000	33333.33	1.772E4
300.100	33322.23	1.777E4
300.200	33311.13	1.782E4
300.300	33300.03	1.787E4
300.400	33288.95	1.792E4
300.500	33277.87	1.797E4
300.600	33266.80	1.801E4
300.700	33255.74	1.807E4
300.800	33244.68	1.811E4
300.900	33233.63	1.816E4
301.000	33222.59	1.82E4
301.100	33211.56	1.825E4
301.200	33200.53	1.83E4
301.300	33189.51	1.834E4
301.400	33178.50	1.839E4
301.500	33167.50	1.844E4
301.600	33156.50	1.849E4
301.700	33145.51	1.854E4
301.800	33134.53	1.858E4
301.900	33123.55	1.863E4
302.000	33112.58	1.867E4
302.100	33101.62	1.872E4
302.200	33090.67	1.876E4
302.300	33079.72	1.881E4
302.400	33068.78	1.885E4
302.500	33057.85	1.89E4
302.600	33046.93	1.894E4
302.700	33036.01	1.898E4
302.800	33025.10	1.902E4
302.900	33014.20	1.906E4
303.000	33003.30	1.911E4
303.100	32992.41	1.915E4
303.200	32981.53	1.92E4
303.300	32970.66	1.925E4
303.400	32959.79	1.928E4
303.500	32948.93	1.932E4
303.600	32938.08	1.936E4
303.700	32927.23	1.941E4
303.800	32916.39	1.944E4
303.900	32905.56	1.948E4
304.000	32894.74	1.953E4
304.100	32883.92	1.956E4
304.200	32873.11	1.96E4
304.300	32862.31	1.964E4
304.400	32851.51	1.969E4
304.500	32840.72	1.972E4
304.600	32829.94	1.977E4
304.700	32819.17	1.98E4
304.800	32808.40	1.983E4
304.900	32797.64	1.987E4
305.000	32786.89	1.991E4
305.100	32776.14	1.994E4
305.200	32765.40	1.999E4
305.300	32754.67	2.002E4
305.400	32743.94	2.006E4
305.500	32733.22	2.01E4
305.600	32722.51	2.013E4
305.700	32711.81	2.017E4
305.800	32701.11	2.02E4
305.900	32690.42	2.024E4
306.000	32679.74	2.027E4
306.100	32669.06	2.031E4
306.200	32658.39	2.033E4
306.300	32647.73	2.037E4
306.400	32637.08	2.041E4
306.500	32626.43	2.044E4
306.600	32615.79	2.048E4
306.700	32605.15	2.05E4
306.800	32594.52	2.054E4
306.900	32583.90	2.057E4
307.000	32573.29	2.06E4
307.100	32562.68	2.064E4
307.200	32552.08	2.067E4
307.300	32541.49	2.071E4
307.400	32530.90	2.074E4
307.500	32520.33	2.077E4
307.600	32509.75	2.081E4
307.700	32499.19	2.084E4
307.800	32488.63	2.086E4
307.900	32478.08	2.09E4
308.000	32467.53	2.093E4
308.100	32456.99	2.096E4
308.200	32446.46	2.099E4
308.300	32435.94	2.102E4
308.400	32425.42	2.106E4
308.500	32414.91	2.109E4
308.600	32404.41	2.112E4
308.700	32393.91	2.116E4
308.800	32383.42	2.119E4
308.900	32372.94	2.121E4
309.000	32362.46	2.125E4
309.100	32351.99	2.128E4
309.200	32341.53	2.131E4
309.300	32331.07	2.134E4
309.400	32320.62	2.137E4
309.500	32310.18	2.14E4
309.600	32299.74	2.144E4
309.700	32289.31	2.146E4
309.800	32278.89	2.149E4
309.900	32268.47	2.152E4
310.000	32258.06	2.156E4
310.100	32247.66	2.159E4
310.200	32237.27	2.161E4
310.300	32226.88	2.165E4
310.400	32216.49	2.167E4
310.500	32206.12	2.17E4
310.600	32195.75	2.174E4
310.700	32185.39	2.177E4
310.800	32175.03	2.178E4
310.900	32164.68	2.182E4
311.000	32154.34	2.186E4
311.100	32144.01	2.189E4
311.200	32133.68	2.192E4
311.300	32123.35	2.195E4
311.400	32113.04	2.198E4
311.500	32102.73	2.2E4
311.600	32092.43	2.204E4
311.700	32082.13	2.206E4
311.800	32071.84	2.208E4
311.900	32061.56	2.212E4
312.000	32051.28	2.214E4
312.100	32041.01	2.217E4
312.200	32030.75	2.22E4
312.300	32020.49	2.223E4
312.400	32010.24	2.225E4
312.500	32000.00	2.227E4
312.600	31989.76	2.231E4
312.700	31979.53	2.233E4
312.800	31969.31	2.236E4
312.900	31959.09	2.239E4
313.000	31948.88	2.24E4
313.100	31938.68	2.243E4
313.200	31928.48	2.246E4
313.300	31918.29	2.248E4
313.400	31908.10	2.25E4
313.500	31897.93	2.251E4
313.600	31887.76	2.254E4
313.700	31877.59	2.258E4
313.800	31867.43	2.259E4
313.900	31857.28	2.262E4
314.000	31847.13	2.263E4
314.100	31836.99	2.265E4
314.200	31826.86	2.267E4
314.300	31816.74	2.269E4
314.400	31806.62	2.271E4
314.500	31796.50	2.272E4
314.600	31786.40	2.275E4
314.700	31776.29	2.276E4
314.800	31766.20	2.278E4
314.900	31756.11	2.28E4
315.000	31746.03	2.281E4
315.100	31735.96	2.281E4
315.200	31725.89	2.284E4
315.300	31715.83	2.286E4
315.400	31705.77	2.286E4
315.500	31695.72	2.287E4
315.600	31685.68	2.287E4
315.700	31675.64	2.289E4
315.800	31665.61	2.289E4
315.900	31655.59	2.292E4
316.000	31645.57	2.291E4
316.100	31635.56	2.292E4
316.200	31625.55	2.293E4
316.300	31615.55	2.293E4
316.400	31605.56	2.293E4
316.500	31595.58	2.293E4
316.600	31585.60	2.294E4
316.700	31575.62	2.294E4
316.800	31565.66	2.293E4
316.900	31555.70	2.295E4
317.000	31545.74	2.295E4
317.100	31535.79	2.294E4
317.200	31525.85	2.293E4
317.300	31515.92	2.294E4
317.400	31505.99	2.293E4
317.500	31496.06	2.292E4
317.600	31486.15	2.292E4
317.700	31476.24	2.29E4
317.800	31466.33	2.29E4
317.900	31456.43	2.29E4
318.000	31446.54	2.288E4
318.100	31436.66	2.287E4
318.200	31426.78	2.287E4
318.300	31416.90	2.286E4
318.400	31407.04	2.285E4
318.500	31397.17	2.283E4
318.600	31387.32	2.281E4
318.700	31377.47	2.28E4
318.800	31367.63	2.278E4
318.900	31357.79	2.277E4
319.000	31347.96	2.276E4
319.100	31338.14	2.274E4
319.200	31328.32	2.272E4
319.300	31318.51	2.27E4
319.400	31308.70	2.268E4
319.500	31298.90	2.267E4
319.600	31289.11	2.266E4
319.700	31279.32	2.263E4
319.800	31269.54	2.26E4
319.900	31259.77	2.258E4
320.000	31250.00	2.257E4
320.100	31240.24	2.254E4
320.200	31230.48	2.252E4
320.300	31220.73	2.25E4
320.400	31210.99	2.247E4
320.500	31201.25	2.245E4
320.600	31191.52	2.243E4
320.700	31181.79	2.24E4
320.800	31172.07	2.238E4
320.900	31162.36	2.236E4
321.000	31152.65	2.232E4
321.100	31142.95	2.231E4
321.200	31133.25	2.229E4
321.300	31123.56	2.225E4
321.400	31113.88	2.222E4
321.500	31104.20	2.22E4
321.600	31094.53	2.218E4
321.700	31084.86	2.215E4
321.800	31075.20	2.212E4
321.900	31065.55	2.21E4
322.000	31055.90	2.207E4
322.100	31046.26	2.205E4
322.200	31036.62	2.203E4
322.300	31026.99	2.199E4
322.400	31017.37	2.197E4
322.500	31007.75	2.195E4
322.600	30998.14	2.193E4
322.700	30988.53	2.19E4
322.800	30978.93	2.187E4
322.900	30969.34	2.185E4
323.000	30959.75	2.182E4
323.100	30950.17	2.18E4
323.200	30940.59	2.178E4
323.300	30931.02	2.174E4
323.400	30921.46	2.173E4
323.500	30911.90	2.171E4
323.600	30902.35	2.169E4
323.700	30892.80	2.166E4
323.800	30883.26	2.164E4
323.900	30873.73	2.161E4
324.000	30864.20	2.16E4
324.100	30854.67	2.157E4
324.200	30845.16	2.156E4
324.300	30835.65	2.152E4
324.400	30826.14	2.15E4
324.500	30816.64	2.148E4
324.600	30807.15	2.145E4
324.700	30797.66	2.144E4
324.800	30788.18	2.142E4
324.900	30778.70	2.141E4
325.000	30769.23	2.138E4
325.100	30759.77	2.135E4
325.200	30750.31	2.134E4
325.300	30740.85	2.132E4
325.400	30731.41	2.13E4
325.500	30721.97	2.128E4
325.600	30712.53	2.126E4
325.700	30703.10	2.123E4
325.800	30693.68	2.122E4
325.900	30684.26	2.121E4
326.000	30674.85	2.119E4
326.100	30665.44	2.116E4
326.200	30656.04	2.115E4
326.300	30646.64	2.113E4
326.400	30637.25	2.111E4
326.500	30627.87	2.11E4
326.600	30618.49	2.107E4
326.700	30609.12	2.105E4
326.800	30599.76	2.103E4
326.900	30590.39	2.102E4
327.000	30581.04	2.1E4
327.100	30571.69	2.098E4
327.200	30562.35	2.096E4
327.300	30553.01	2.093E4
327.400	30543.68	2.092E4
327.500	30534.35	2.089E4
327.600	30525.03	2.087E4
327.700	30515.72	2.085E4
327.800	30506.41	2.083E4
327.900	30497.10	2.081E4
328.000	30487.80	2.079E4
328.100	30478.51	2.075E4
328.200	30469.23	2.073E4
328.300	30459.95	2.071E4
328.400	30450.67	2.068E4
328.500	30441.40	2.066E4
328.600	30432.14	2.062E4
328.700	30422.88	2.061E4
328.800	30413.63	2.057E4
328.900	30404.38	2.054E4
329.000	30395.14	2.052E4
329.100	30385.90	2.049E4
329.200	30376.67	2.045E4
329.300	30367.45	2.042E4
329.400	30358.23	2.038E4
329.500	30349.01	2.034E4
329.600	30339.81	2.031E4
329.700	30330.60	2.028E4
329.800	30321.41	2.023E4
329.900	30312.22	2.02E4
330.000	30303.03	2.016E4
330.100	30293.85	2.011E4
330.200	30284.68	2.008E4
330.300	30275.51	2.004E4
330.400	30266.34	1.999E4
330.500	30257.19	1.994E4
330.600	30248.03	1.989E4
330.700	30238.89	1.985E4
330.800	30229.75	1.98E4
330.900	30220.61	1.974E4
331.000	30211.48	1.969E4
331.100	30202.36	1.964E4
331.200	30193.24	1.958E4
331.300	30184.12	1.953E4
331.400	30175.02	1.947E4
331.500	30165.91	1.942E4
331.600	30156.82	1.936E4
331.700	30147.72	1.93E4
331.800	30138.64	1.923E4
331.900	30129.56	1.917E4
332.000	30120.48	1.91E4
332.100	30111.41	1.904E4
332.200	30102.35	1.896E4
332.300	30093.29	1.89E4
332.400	30084.24	1.883E4
332.500	30075.19	1.876E4
332.600	30066.15	1.869E4
332.700	30057.11	1.862E4
332.800	30048.08	1.854E4
332.900	30039.05	1.847E4
333.000	30030.03	1.839E4
333.100	30021.01	1.832E4
333.200	30012.00	1.823E4
333.300	30003.00	1.816E4
333.400	29994.00	1.807E4
333.500	29985.01	1.799E4
333.600	29976.02	1.791E4
333.700	29967.04	1.783E4
333.800	29958.06	1.773E4
333.900	29949.09	1.766E4
334.000	29940.12	1.758E4
334.100	29931.16	1.749E4
334.200	29922.20	1.741E4
334.300	29913.25	1.732E4
334.400	29904.31	1.723E4
334.500	29895.37	1.714E4
334.600	29886.43	1.706E4
334.700	29877.50	1.696E4
334.800	29868.58	1.687E4
334.900	29859.66	1.678E4
335.000	29850.75	1.669E4
335.100	29841.84	1.66E4
335.200	29832.94	1.651E4
335.300	29824.04	1.642E4
335.400	29815.15	1.633E4
335.500	29806.26	1.624E4
335.600	29797.38	1.615E4
335.700	29788.50	1.606E4
335.800	29779.63	1.597E4
335.900	29770.77	1.588E4
336.000	29761.90	1.578E4
336.100	29753.05	1.569E4
336.200	29744.20	1.56E4
336.300	29735.36	1.551E4
336.400	29726.52	1.542E4
336.500	29717.68	1.533E4
336.600	29708.85	1.524E4
336.700	29700.03	1.515E4
336.800	29691.21	1.507E4
336.900	29682.40	1.498E4
337.000	29673.59	1.489E4
337.100	29664.79	1.48E4
337.200	29655.99	1.472E4
337.300	29647.20	1.463E4
337.400	29638.41	1.455E4
337.500	29629.63	1.446E4
337.600	29620.85	1.438E4
337.700	29612.08	1.429E4
337.800	29603.32	1.421E4
337.900	29594.55	1.413E4
338.000	29585.80	1.405E4
338.100	29577.05	1.396E4
338.200	29568.30	1.389E4
338.300	29559.56	1.381E4
338.400	29550.83	1.373E4
338.500	29542.10	1.366E4
338.600	29533.37	1.358E4
338.700	29524.65	1.35E4
338.800	29515.94	1.342E4
338.900	29507.23	1.336E4
339.000	29498.53	1.328E4
339.100	29489.83	1.321E4
339.200	29481.13	1.314E4
339.300	29472.44	1.307E4
339.400	29463.76	1.3E4
339.500	29455.08	1.294E4
339.600	29446.41	1.288E4
339.700	29437.74	1.281E4
339.800	29429.08	1.274E4
339.900	29420.42	1.268E4
340.000	29411.76	1.262E4
340.100	29403.12	1.255E4
340.200	29394.47	1.25E4
340.300	29385.84	1.243E4
340.400	29377.20	1.237E4
340.500	29368.58	1.231E4
340.600	29359.95	1.226E4
340.700	29351.34	1.22E4
340.800	29342.72	1.214E4
340.900	29334.12	1.21E4
341.000	29325.51	1.204E4
341.100	29316.92	1.198E4
341.200	29308.32	1.193E4
341.300	29299.74	1.188E4
341.400	29291.15	1.183E4
341.500	29282.58	1.177E4
341.600	29274.00	1.172E4
341.700	29265.44	1.168E4
341.800	29256.88	1.163E4
341.900	29248.32	1.158E4
342.000	29239.77	1.154E4
342.100	29231.22	1.148E4
342.200	29222.68	1.144E4
342.300	29214.14	1.139E4
342.400	29205.61	1.134E4
342.500	29197.08	1.13E4
342.600	29188.56	1.126E4
342.700	29180.04	1.121E4
342.800	29171.53	1.117E4
342.900	29163.02	1.112E4
343.000	29154.52	1.108E4
343.100	29146.02	1.103E4
343.200	29137.53	1.099E4
343.300	29129.04	1.095E4
343.400	29120.56	1.09E4
343.500	29112.08	1.087E4
343.600	29103.61	1.082E4
343.700	29095.14	1.078E4
343.800	29086.68	1.073E4
343.900	29078.22	1.069E4
344.000	29069.77	1.065E4
344.100	29061.32	1.06E4
344.200	29052.88	1.055E4
344.300	29044.44	1.051E4
344.400	29036.00	1.046E4
344.500	29027.58	1.042E4
344.600	29019.15	1.038E4
344.700	29010.73	1.033E4
344.800	29002.32	1.029E4
344.900	28993.91	1.024E4
345.000	28985.51	1.02E4
345.100	28977.11	1.015E4
345.200	28968.71	1.01E4
345.300	28960.32	1.005E4
345.400	28951.94	1E4
345.500	28943.56	9954
345.600	28935.19	9905
345.700	28926.82	9851
345.800	28918.45	9805
345.900	28910.09	9750
346.000	28901.73	9701
346.100	28893.38	9650
346.200	28885.04	9596
346.300	28876.70	9542
346.400	28868.36	9488
346.500	28860.03	9433
346.600	28851.70	9372
346.700	28843.38	9319
346.800	28835.06	9257
346.900	28826.75	9196
347.000	28818.44	9142
347.100	28810.14	9081
347.200	28801.84	9017
347.300	28793.55	8960
347.400	28785.26	8894
347.500	28776.98	8833
347.600	28768.70	8770
347.700	28760.43	8705
347.800	28752.16	8640
347.900	28743.89	8568
348.000	28735.63	8501
348.100	28727.38	8433
348.200	28719.13	8364
348.300	28710.88	8293
348.400	28702.64	8226
348.500	28694.40	8156
348.600	28686.17	8084
348.700	28677.95	8013
348.800	28669.72	7934
348.900	28661.51	7863
349.000	28653.30	7791
349.100	28645.09	7715
349.200	28636.88	7632
349.300	28628.69	7562
349.400	28620.49	7476
349.500	28612.30	7401
349.600	28604.12	7321
349.700	28595.94	7248
349.800	28587.76	7166
349.900	28579.59	7091
350.000	28571.43	7011
350.100	28563.27	6927
350.200	28555.11	6851
350.300	28546.96	6768
350.400	28538.81	6693
350.500	28530.67	6602
350.600	28522.53	6524
350.700	28514.40	6434
350.800	28506.27	6359
350.900	28498.15	6272
351.000	28490.03	6195
351.100	28481.91	6110
351.200	28473.80	6030
351.300	28465.70	5948
351.400	28457.60	5864
351.500	28449.50	5784
351.600	28441.41	5702
351.700	28433.32	5623
351.800	28425.24	5533
351.900	28417.16	5454
352.000	28409.09	5373
352.100	28401.02	5290
352.200	28392.96	5203
352.300	28384.90	5129
352.400	28376.84	5046
352.500	28368.79	4967
352.600	28360.75	4893
352.700	28352.71	4808
352.800	28344.67	4731
352.900	28336.64	4651
353.000	28328.61	4582
353.100	28320.59	4496
353.200	28312.57	4423
353.300	28304.56	4343
353.400	28296.55	4268
353.500	28288.54	4191
353.600	28280.54	4120
353.700	28272.55	4046
353.800	28264.56	3974
353.900	28256.57	3906
354.000	28248.59	3831
354.100	28240.61	3763
354.200	28232.64	3693
354.300	28224.67	3625
354.400	28216.70	3555
354.500	28208.74	3489
354.600	28200.79	3418
354.700	28192.84	3355
354.800	28184.89	3289
354.900	28176.95	3226
355.000	28169.01	3160
355.100	28161.08	3100
355.200	28153.15	3042
355.300	28145.23	2979
355.400	28137.31	2923
355.500	28129.40	2858
355.600	28121.48	2807
355.700	28113.58	2747
355.800	28105.68	2695
355.900	28097.78	2633
356.000	28089.89	2583
356.100	28082.00	2524
356.200	28074.12	2475
356.300	28066.24	2424
356.400	28058.36	2374
356.500	28050.49	2324
356.600	28042.62	2276
356.700	28034.76	2227
356.800	28026.91	2184
356.900	28019.05	2138
357.000	28011.20	2090
357.100	28003.36	2046
357.200	27995.52	2002
357.300	27987.69	1959
357.400	27979.85	1911
357.500	27972.03	1872
357.600	27964.21	1830
357.700	27956.39	1793
357.800	27948.57	1756
357.900	27940.77	1716
358.000	27932.96	1681
358.100	27925.16	1645
358.200	27917.36	1611
358.300	27909.57	1574
358.400	27901.79	1539
358.500	27894.00	1507
358.600	27886.22	1471
358.700	27878.45	1438
358.800	27870.68	1407
358.900	27862.91	1356
359.000	27855.15	1326
359.100	27847.40	1298
359.200	27839.64	1270
359.300	27831.90	1241
359.400	27824.15	1213
359.500	27816.41	1191
359.600	27808.68	1164
359.700	27800.95	1138
359.800	27793.22	1115
359.900	27785.50	1085
360.000	27777.78	1036
360.100	27770.06	1014
360.200	27762.35	990.5
360.300	27754.65	970.7
360.400	27746.95	948.9
360.500	27739.25	928.7
360.600	27731.56	908
360.700	27723.87	889.5
360.800	27716.19	870.6
360.900	27708.51	851.9
361.000	27700.83	834.1
361.100	27693.16	815.9
361.200	27685.49	799.1
361.300	27677.83	781.8
361.400	27670.17	765.7
361.500	27662.52	748.5
361.600	27654.87	733.8
361.700	27647.22	717.8
361.800	27639.58	702.7
361.900	27631.94	687.6
362.000	27624.31	674
362.100	27616.68	660
362.200	27609.06	646.3
362.300	27601.44	633.2
362.400	27593.82	619.7
362.500	27586.21	607.6
362.600	27578.60	594.8
362.700	27571.00	583
362.800	27563.40	570.1
362.900	27555.80	559.1
363.000	27548.21	547.4
363.100	27540.62	536.5
363.200	27533.04	525.2
363.300	27525.46	515.1
363.400	27517.89	505
363.500	27510.32	494.7
363.600	27502.75	485
363.700	27495.19	475.2
363.800	27487.63	466.3
363.900	27480.08	456.6
364.000	27472.53	448.2
364.100	27464.98	438.5
364.200	27457.44	430.3
364.300	27449.90	421.8
364.400	27442.37	413.9
364.500	27434.84	405.9
364.600	27427.32	398
364.700	27419.80	390.3
364.800	27412.28	382.8
364.900	27404.77	375.9
365.000	27397.26	368.8
365.100	27389.76	362
365.200	27382.26	355.1
365.300	27374.76	348.8
365.400	27367.27	342
365.500	27359.78	335.8
365.600	27352.30	329.4
365.700	27344.82	323.8
365.800	27337.34	317.5
365.900	27329.87	312
366.000	27322.40	306.4
366.100	27314.94	301.1
366.200	27307.48	295.9
366.300	27300.03	290.6
366.400	27292.58	285.7
366.500	27285.13	280.5
366.600	27277.69	275.9
366.700	27270.25	270.9
366.800	27262.81	266.4
366.900	27255.38	261.9
367.000	27247.96	257.6
367.100	27240.53	253.4
367.200	27233.12	249.3
367.300	27225.70	245
367.400	27218.29	241.2
367.500	27210.88	237.5
367.600	27203.48	233.9
367.700	27196.08	230.3
367.800	27188.69	226.7
367.900	27181.30	223.2
368.000	27173.91	219.7
368.100	27166.53	216.6
368.200	27159.15	213.1
368.300	27151.78	209.9
368.400	27144.41	206.8
368.500	27137.04	203.9
368.600	27129.68	201.1
368.700	27122.32	198.2
368.800	27114.97	195.5
368.900	27107.62	192.9
369.000	27100.27	190.3
369.100	27092.93	187.7
369.200	27085.59	185.6
369.300	27078.26	183.1
369.400	27070.93	180.7
369.500	27063.60	178
369.600	27056.28	175.8
369.700	27048.96	173.4
369.800	27041.64	171.6
369.900	27034.33	169.5
370.000	27027.03	167.5
370.100	27019.72	165.7
370.200	27012.43	163.6
370.300	27005.13	162
370.400	26997.84	160.4
370.500	26990.55	158.5
370.600	26983.27	156.8
370.700	26975.99	155.2
370.800	26968.72	153.5
370.900	26961.45	152
371.000	26954.18	150.6
371.100	26946.91	149.2
371.200	26939.66	147.7
371.300	26932.40	146.5
371.400	26925.15	145
371.500	26917.90	143.6
371.600	26910.66	142.6
371.700	26903.42	141.4
371.800	26896.18	140.3
371.900	26888.95	138.9
372.000	26881.72	137.8
372.100	26874.50	136.7
372.200	26867.28	135.8
372.300	26860.06	134.8
372.400	26852.85	133.9
372.500	26845.64	132.8
372.600	26838.43	132
372.700	26831.23	131.1
372.800	26824.03	130.4
372.900	26816.84	129.5
373.000	26809.65	128.7
373.100	26802.47	127.9
373.200	26795.28	127.6
373.300	26788.11	126.7
373.400	26780.93	126
373.500	26773.76	125.4
373.600	26766.60	124.7
373.700	26759.43	124.3
373.800	26752.27	123.7
373.900	26745.12	123.2
374.000	26737.97	122.8
374.100	26730.82	122.3
374.200	26723.68	121.8
374.300	26716.54	121.3
374.400	26709.40	121.1
374.500	26702.27	120.5
374.600	26695.14	120.1
374.700	26688.02	119.7
374.800	26680.90	119.4
374.900	26673.78	119.3
375.000	26666.67	118.9
375.100	26659.56	118.8
375.200	26652.45	118.2
375.300	26645.35	117.9
375.400	26638.25	117.8
375.500	26631.16	117.6
375.600	26624.07	117.7
375.700	26616.98	117.4
375.800	26609.90	117.1
375.900	26602.82	116.9
376.000	26595.74	117
376.100	26588.67	116.7
376.200	26581.61	116.6
376.300	26574.54	116.6
376.400	26567.48	116.5
376.500	26560.42	116.4
376.600	26553.37	116.5
376.700	26546.32	116.3
376.800	26539.28	116.3
376.900	26532.24	116.3
377.000	26525.20	116.2
377.100	26518.16	116.2
377.200	26511.13	116.2
377.300	26504.11	116.3
377.400	26497.09	116.2
377.500	26490.07	116.3
377.600	26483.05	116.4
377.700	26476.04	116.5
377.800	26469.03	116.5
377.900	26462.03	116.7
378.000	26455.03	117
378.100	26448.03	117.4
378.200	26441.04	117.2
378.300	26434.05	117.2
378.400	26427.06	117.4
378.500	26420.08	117.6
378.600	26413.10	117.7
378.700	26406.13	118
378.800	26399.16	118.3
378.900	26392.19	118.5
379.000	26385.22	118.6
379.100	26378.26	118.8
379.200	26371.31	119
379.300	26364.36	119.4
379.400	26357.41	119.5
379.500	26350.46	119.6
379.600	26343.52	120.1
379.700	26336.58	120.3
379.800	26329.65	120.3
379.900	26322.72	120.7
380.000	26315.79	120.9
380.100	26308.87	121
380.200	26301.95	121.5
380.300	26295.03	121.9
380.400	26288.12	122.2
380.500	26281.21	122.4
380.600	26274.30	122.5
380.700	26267.40	122.9
380.800	26260.50	123.3
380.900	26253.61	123.6
381.000	26246.72	123.9
381.100	26239.83	124.3
381.200	26232.95	124.6
381.300	26226.07	124.9
381.400	26219.19	125.3
381.500	26212.32	125.9
381.600	26205.45	126
381.700	26198.59	126.5
381.800	26191.72	126.8
381.900	26184.87	127.2
382.000	26178.01	127.7
382.100	26171.16	128
382.200	26164.31	128.4
382.300	26157.47	128.8
382.400	26150.63	129
382.500	26143.79	129.6
382.600	26136.96	129.9
382.700	26130.13	130.3
382.800	26123.30	131.1
382.900	26116.48	131.4
383.000	26109.66	131.7
383.100	26102.85	132.2
383.200	26096.03	132.7
383.300	26089.23	133
383.400	26082.42	133.5
383.500	26075.62	134
383.600	26068.82	134.4
383.700	26062.03	134.7
383.800	26055.24	135.3
383.900	26048.45	135.7
384.000	26041.67	136.5
384.100	26034.89	136.9
384.200	26028.11	137.4
384.300	26021.34	137.8
384.400	26014.57	138.2
384.500	26007.80	138.7
384.600	26001.04	138.9
384.700	25994.28	139.8
384.800	25987.53	140.1
384.900	25980.77	140.6
385.000	25974.03	141
385.100	25967.28	141.7
385.200	25960.54	142.2
385.300	25953.80	142.7
385.400	25947.07	143.2
385.500	25940.34	143.6
385.600	25933.61	144.1
385.700	25926.89	144.7
385.800	25920.17	145.4
385.900	25913.45	145.8
386.000	25906.74	146.5
386.100	25900.03	146.7
386.200	25893.32	147.4
386.300	25886.62	148
386.400	25879.92	148.5
386.500	25873.22	149.1
386.600	25866.53	149.7
386.700	25859.84	150.2
386.800	25853.15	150.7
386.900	25846.47	151.3
387.000	25839.79	151.9
387.100	25833.12	152.5
387.200	25826.45	152.9
387.300	25819.78	153.6
387.400	25813.11	154.2
387.500	25806.45	155
387.600	25799.79	155.6
387.700	25793.14	156.1
387.800	25786.49	156.7
387.900	25779.84	157.3
388.000	25773.20	157.8
388.100	25766.56	158.5
388.200	25759.92	158.9
388.300	25753.28	159.5
388.400	25746.65	160.2
388.500	25740.03	160.8
388.600	25733.40	161.4
388.700	25726.78	162
388.800	25720.16	162.6
388.900	25713.55	163.2
389.000	25706.94	163.9
389.100	25700.33	164.4
389.200	25693.73	165
389.300	25687.13	165.8
389.400	25680.53	166.4
389.500	25673.94	167
389.600	25667.35	167.6
389.700	25660.76	168.1
389.800	25654.18	168.9
389.900	25647.60	169.7
390.000	25641.03	170.1
390.100	25634.45	170.8
390.200	25627.88	171.5
390.300	25621.32	172.1
390.400	25614.75	172.8
390.500	25608.19	173.5
390.600	25601.64	174.1
390.700	25595.09	174.8
390.800	25588.54	175.4
390.900	25581.99	176.3
391.000	25575.45	176.9
391.100	25568.91	177.4
391.200	25562.37	178
391.300	25555.84	178.8
391.400	25549.31	179.4
391.500	25542.78	180.1
391.600	25536.26	180.8
391.700	25529.74	181.5
391.800	25523.23	182.1
391.900	25516.71	182.9
392.000	25510.20	183.6
392.100	25503.70	184.1
392.200	25497.20	184.9
392.300	25490.70	185.7
392.400	25484.20	186.3
392.500	25477.71	187.1
392.600	25471.22	187.7
392.700	25464.73	188.5
392.800	25458.25	189.1
392.900	25451.77	189.8
393.000	25445.29	190.5
393.100	25438.82	191.3
393.200	25432.35	192
393.300	25425.88	192.8
393.400	25419.42	193.5
393.500	25412.96	194.3
393.600	25406.50	195
393.700	25400.05	195.6
393.800	25393.60	196.3
393.900	25387.15	197.2
394.000	25380.71	197.8
394.100	25374.27	198.4
394.200	25367.83	199.2
394.300	25361.40	199.6
394.400	25354.97	200.6
394.500	25348.54	201.4
394.600	25342.12	202.2
394.700	25335.70	202.8
394.800	25329.28	203.7
394.900	25322.87	204.4
395.000	25316.46	205.1
395.100	25310.05	206.1
395.200	25303.64	206.5
395.300	25297.24	207.4
395.400	25290.84	207.9
395.500	25284.45	208.8
395.600	25278.06	209.7
395.700	25271.67	210.3
395.800	25265.29	211
395.900	25258.90	211.2
396.000	25252.53	212.5
396.100	25246.15	213.3
396.200	25239.78	214.1
396.300	25233.41	214.8
396.400	25227.04	215.5
396.500	25220.68	216.3
396.600	25214.32	217
396.700	25207.97	217.8
396.800	25201.61	218.7
396.900	25195.26	219.3
397.000	25188.92	220.1
397.100	25182.57	221
397.200	25176.23	222.1
397.300	25169.90	222.8
397.400	25163.56	223.4
397.500	25157.23	224.2
397.600	25150.91	225
397.700	25144.58	225.7
397.800	25138.26	226.4
397.900	25131.94	227.3
398.000	25125.63	228
398.100	25119.32	228.8
398.200	25113.01	229.6
398.300	25106.70	230.4
398.400	25100.40	231.2
398.500	25094.10	231.9
398.600	25087.81	232.7
398.700	25081.51	233.6
398.800	25075.23	234.4
398.900	25068.94	235.2
399.000	25062.66	235.8
399.100	25056.38	236.8
399.200	25050.10	237.4
399.300	25043.83	238.3
399.400	25037.56	239
399.500	25031.29	239.8
399.600	25025.03	240.8
399.700	25018.76	241.4
399.800	25012.51	242.3
399.900	25006.25	243.1
400.000	25000.00	243.8
400.100	24993.75	244.6
400.200	24987.51	245.4
400.300	24981.26	246.1
400.400	24975.02	247.1
400.500	24968.79	247.9
400.600	24962.56	248.7
400.700	24956.33	249.6
400.800	24950.10	250.4
400.900	24943.88	251.2
401.000	24937.66	252
401.100	24931.44	253
401.200	24925.22	253.7
401.300	24919.01	254.6
401.400	24912.81	255.2
401.500	24906.60	255.9
401.600	24900.40	256.7
401.700	24894.20	257.7
401.800	24888.00	258.5
401.900	24881.81	259.2
402.000	24875.62	260
402.100	24869.44	261
402.200	24863.25	261.8
402.300	24857.07	262.6
402.400	24850.89	263.5
402.500	24844.72	264.4
402.600	24838.55	265.1
402.700	24832.38	265.9
402.800	24826.22	266.8
402.900	24820.05	267.8
403.000	24813.90	268.7
403.100	24807.74	269.3
403.200	24801.59	270.1
403.300	24795.44	271
403.400	24789.29	271.7
403.500	24783.15	272.4
403.600	24777.01	273.4
403.700	24770.87	274.3
403.800	24764.74	275.1
403.900	24758.60	276
404.000	24752.48	276.8
404.100	24746.35	278
404.200	24740.23	278.5
404.300	24734.11	279.3
404.400	24727.99	280.1
404.500	24721.88	280.9
404.600	24715.77	281.8
404.700	24709.66	282.5
404.800	24703.56	283.5
404.900	24697.46	284.3
405.000	24691.36	285.4
405.100	24685.26	285.9
405.200	24679.17	286.8
405.300	24673.08	287.7
405.400	24667.00	288.5
405.500	24660.91	289.3
405.600	24654.83	290.2
405.700	24648.76	290.8
405.800	24642.68	291.7
405.900	24636.61	292.5
406.000	24630.54	293.4
406.100	24624.48	294.3
406.200	24618.41	295.2
406.300	24612.36	296
406.400	24606.30	296.7
406.500	24600.25	297.7
406.600	24594.20	298.5
406.700	24588.15	299.4
406.800	24582.10	300.1
406.900	24576.06	301.1
407.000	24570.02	301.9
407.100	24563.99	302.8
407.200	24557.96	303.7
407.300	24551.93	304.5
407.400	24545.90	305.1
407.500	24539.88	306
407.600	24533.86	306.9
407.700	24527.84	307.6
407.800	24521.82	308.6
407.900	24515.81	309.3
408.000	24509.80	310.2
408.100	24503.80	311
408.200	24497.80	311.9
408.300	24491.80	312.7
408.400	24485.80	313.5
408.500	24479.80	314.4
408.600	24473.81	315.2
408.700	24467.82	316
408.800	24461.84	316.8
408.900	24455.86	317.9
409.000	24449.88	318.6
409.100	24443.90	319.6
409.200	24437.93	320.3
409.300	24431.96	321.3
409.400	24425.99	321.8
409.500	24420.02	322.7
409.600	24414.06	324
409.700	24408.10	324.6
409.800	24402.15	325.3
409.900	24396.19	326.1
410.000	24390.24	327
410.100	24384.30	327.6
410.200	24378.35	328.7
410.300	24372.41	329.4
410.400	24366.47	330.2
410.500	24360.54	331.2
410.600	24354.60	332
410.700	24348.67	332.8
410.800	24342.75	333.7
410.900	24336.82	334.3
411.000	24330.90	335.5
411.100	24324.98	335.9
411.200	24319.07	337
411.300	24313.15	338
411.400	24307.24	338.7
411.500	24301.34	339.3
411.600	24295.43	340.2
411.700	24289.53	341
411.800	24283.63	341.8
411.900	24277.74	342.7
412.000	24271.84	343.4
412.100	24265.95	344.2
412.200	24260.07	345
412.300	24254.18	345.9
412.400	24248.30	346.7
412.500	24242.42	347.6
412.600	24236.55	348.4
412.700	24230.68	349.1
412.800	24224.81	350
412.900	24218.94	351
413.000	24213.08	351.6
413.100	24207.21	352.5
413.200	24201.36	353.4
413.300	24195.50	354
413.400	24189.65	355.1
413.500	24183.80	355.8
413.600	24177.95	356.6
413.700	24172.11	357.4
413.800	24166.26	358.1
413.900	24160.43	359
414.000	24154.59	359.9
414.100	24148.76	360.6
414.200	24142.93	361.3
414.300	24137.10	362
414.400	24131.27	362.8
414.500	24125.45	363.7
414.600	24119.63	364.5
414.700	24113.82	365.1
414.800	24108.00	365.9
414.900	24102.19	366.7
415.000	24096.39	367.6
415.100	24090.58	368.2
415.200	24084.78	369.1
415.300	24078.98	369.9
415.400	24073.18	370.7
415.500	24067.39	371.4
415.600	24061.60	372.4
415.700	24055.81	373.1
415.800	24050.02	373.8
415.900	24044.24	374.6
416.000	24038.46	375.3
416.100	24032.68	376.2
416.200	24026.91	376.9
416.300	24021.14	377.7
416.400	24015.37	378.3
416.500	24009.60	379.2
416.600	24003.84	379.9
416.700	23998.08	380.9
416.800	23992.32	381.5
416.900	23986.57	382.4
417.000	23980.82	383.1
417.100	23975.07	383.9
417.200	23969.32	384.5
417.300	23963.58	385.3
417.400	23957.83	386.3
417.500	23952.10	387.1
417.600	23946.36	387.8
417.700	23940.63	388.5
417.800	23934.90	389
417.900	23929.17	389.8
418.000	23923.44	390.6
418.100	23917.72	391.4
418.200	23912.00	392.1
418.300	23906.29	392.9
418.400	23900.57	393.5
418.500	23894.86	394.3
418.600	23889.15	395.1
418.700	23883.45	395.7
418.800	23877.75	396.3
418.900	23872.05	397.3
419.000	23866.35	397.9
419.100	23860.65	398.8
419.200	23854.96	399.4
419.300	23849.27	400.1
419.400	23843.59	400.8
419.500	23837.90	401.8
419.600	23832.22	402.4
419.700	23826.54	403
419.800	23820.87	403.7
419.900	23815.19	404.5
420.000	23809.52	405.1
420.100	23803.86	405.8
420.200	23798.19	406.5
420.300	23792.53	407.1
420.400	23786.87	407.8
420.500	23781.21	408.5
420.600	23775.56	409.2
420.700	23769.91	409.9
420.800	23764.26	410.6
420.900	23758.61	411.2
421.000	23752.97	412
421.100	23747.33	412.6
421.200	23741.69	413.5
421.300	23736.06	414
421.400	23730.42	414.6
421.500	23724.79	415.4
421.600	23719.17	416
421.700	23713.54	416.6
421.800	23707.92	417.3
421.900	23702.30	418
422.000	23696.68	418.6
422.100	23691.07	419.4
422.200	23685.46	420.1
422.300	23679.85	420.7
422.400	23674.24	421.3
422.500	23668.64	421.9
422.600	23663.04	422.5
422.700	23657.44	423.2
422.800	23651.84	423.9
422.900	23646.25	424.4
423.000	23640.66	425.1
423.100	23635.07	425.6
423.200	23629.49	426.4
423.300	23623.91	427
423.400	23618.33	427.8
423.500	23612.75	428.2
423.600	23607.18	428.9
423.700	23601.60	429.5
423.800	23596.04	430.1
423.900	23590.47	430.8
424.000	23584.91	431.5
424.100	23579.34	432
424.200	23573.79	432.6
424.300	23568.23	433.2
424.400	23562.68	433.8
424.500	23557.13	434.4
424.600	23551.58	435
424.700	23546.03	435.7
424.800	23540.49	436.1
424.900	23534.95	436.9
425.000	23529.41	437.5
425.100	23523.88	438
425.200	23518.34	438.6
425.300	23512.81	439.1
425.400	23507.29	439.7
425.500	23501.76	440.4
425.600	23496.24	440.9
425.700	23490.72	441.4
425.800	23485.20	442
425.900	23479.69	442.6
426.000	23474.18	443.1
426.100	23468.67	443.6
426.200	23463.16	444.3
426.300	23457.66	444.8
426.400	23452.16	445.3
426.500	23446.66	445.8
426.600	23441.16	446.3
426.700	23435.67	447
426.800	23430.18	447.5
426.900	23424.69	448
427.000	23419.20	448.5
427.100	23413.72	449
427.200	23408.24	449.6
427.300	23402.76	450.3
427.400	23397.29	450.7
427.500	23391.81	451.2
427.600	23386.34	451.5
427.700	23380.87	452.1
427.800	23375.41	452.6
427.900	23369.95	453.2
428.000	23364.49	453.7
428.100	23359.03	454.3
428.200	23353.57	454.7
428.300	23348.12	455.1
428.400	23342.67	455.7
428.500	23337.22	456.3
428.600	23331.78	456.6
428.700	23326.34	457.1
428.800	23320.90	457.6
428.900	23315.46	458
429.000	23310.02	458.4
429.100	23304.59	458.9
429.200	23299.16	459.4
429.300	23293.73	459.9
429.400	23288.31	460.3
429.500	23282.89	460.8
429.600	23277.47	461.2
429.700	23272.05	461.6
429.800	23266.64	462
429.900	23261.22	462.5
430.000	23255.81	463.1
430.100	23250.41	463.5
430.200	23245.00	463.9
430.300	23239.60	464.5
430.400	23234.20	465.2
430.500	23228.80	465.3
430.600	23223.41	465.6
430.700	23218.02	465.8
430.800	23212.63	466.3
430.900	23207.24	466.7
431.000	23201.86	467.3
431.100	23196.47	467.7
431.200	23191.09	468.2
431.300	23185.72	468.6
431.400	23180.34	469
431.500	23174.97	469.2
431.600	23169.60	469.7
431.700	23164.23	469.9
431.800	23158.87	470.3
431.900	23153.51	470.7
432.000	23148.15	471.3
432.100	23142.79	471.5
432.200	23137.44	471.8
432.300	23132.08	472.2
432.400	23126.73	472.6
432.500	23121.39	473.1
432.600	23116.04	473.3
432.700	23110.70	473.5
432.800	23105.36	474
432.900	23100.02	474.2
433.000	23094.69	474.6
433.100	23089.36	474.9
433.200	23084.03	475.3
433.300	23078.70	475.6
433.400	23073.37	475.8
433.500	23068.05	476.2
433.600	23062.73	476.5
433.700	23057.41	476.8
433.800	23052.10	477.1
433.900	23046.78	477.5
434.000	23041.47	477.9
434.100	23036.17	478.2
434.200	23030.86	478.3
434.300	23025.56	478.6
434.400	23020.26	479
434.500	23014.96	479.4
434.600	23009.66	479.5
434.700	23004.37	479.8
434.800	22999.08	480.2
434.900	22993.79	480.4
435.000	22988.51	480.6
435.100	22983.22	480.9
435.200	22977.94	481.1
435.300	22972.66	481.4
435.400	22967.39	481.7
435.500	22962.11	482.2
435.600	22956.84	482.5
435.700	22951.57	482.6
435.800	22946.31	482.8
435.900	22941.04	483.2
436.000	22935.78	483.6
436.100	22930.52	483.6
436.200	22925.26	483.8
436.300	22920.01	483.9
436.400	22914.76	484.1
436.500	22909.51	484.3
436.600	22904.26	484.6
436.700	22899.02	484.6
436.800	22893.77	484.9
436.900	22888.53	485.1
437.000	22883.30	485.2
437.100	22878.06	485.6
437.200	22872.83	485.7
437.300	22867.60	485.9
437.400	22862.37	486.1
437.500	22857.14	486.2
437.600	22851.92	486.5
437.700	22846.70	486.5
437.800	22841.48	487
437.900	22836.26	487
438.000	22831.05	487.2
438.100	22825.84	487.3
438.200	22820.63	487.6
438.300	22815.42	487.6
438.400	22810.22	487.7
438.500	22805.02	487.9
438.600	22799.82	488
438.700	22794.62	488
438.800	22789.43	488.3
438.900	22784.23	488.5
439.000	22779.04	488.5
439.100	22773.86	488.5
439.200	22768.67	488.8
439.300	22763.49	489
439.400	22758.31	489.3
439.500	22753.13	489.3
439.600	22747.95	489.3
439.700	22742.78	489.3
439.800	22737.61	489.4
439.900	22732.44	489.6
440.000	22727.27	490
440.100	22722.11	489.7
440.200	22716.95	489.8
440.300	22711.79	489.9
440.400	22706.63	489.9
440.500	22701.48	490.1
440.600	22696.32	489.8
440.700	22691.17	490
440.800	22686.03	490.1
440.900	22680.88	490.3
441.000	22675.74	490.3
441.100	22670.60	490.4
441.200	22665.46	490.4
441.300	22660.32	490.3
441.400	22655.19	490.3
441.500	22650.06	490.3
441.600	22644.93	490.4
441.700	22639.80	490.5
441.800	22634.68	490.4
441.900	22629.55	490.4
442.000	22624.43	490.5
442.100	22619.32	490.6
442.200	22614.20	490.8
442.300	22609.09	490.7
442.400	22603.98	490.7
442.500	22598.87	490.6
442.600	22593.76	490.5
442.700	22588.66	490.4
442.800	22583.56	490.4
442.900	22578.46	490.5
443.000	22573.36	490.5
443.100	22568.27	490.7
443.200	22563.18	490.5
443.300	22558.09	490.7
443.400	22553.00	490.4
443.500	22547.91	490.4
443.600	22542.83	490.3
443.700	22537.75	490.2
443.800	22532.67	490.1
443.900	22527.60	490
444.000	22522.52	490
444.100	22517.45	490.1
444.200	22512.38	489.9
444.300	22507.31	489.7
444.400	22502.25	489.8
444.500	22497.19	489.8
444.600	22492.13	489.7
444.700	22487.07	489.6
444.800	22482.01	489.5
444.900	22476.96	489.3
445.000	22471.91	489.3
445.100	22466.86	489.3
445.200	22461.81	489.1
445.300	22456.77	488.9
445.400	22451.73	488.8
445.500	22446.69	488.7
445.600	22441.65	488.6
445.700	22436.62	488.5
445.800	22431.58	488.4
445.900	22426.55	488.1
446.000	22421.52	488.1
446.100	22416.50	488.1
446.200	22411.47	487.9
446.300	22406.45	487.8
446.400	22401.43	487.7
446.500	22396.42	487.5
446.600	22391.40	487.3
446.700	22386.39	487.2
446.800	22381.38	487
446.900	22376.37	486.8
447.000	22371.36	486.6
447.100	22366.36	486.5
447.200	22361.36	486.2
447.300	22356.36	486.5
447.400	22351.36	486.3
447.500	22346.37	485.7
447.600	22341.38	485.5
447.700	22336.39	485.3
447.800	22331.40	485.5
447.900	22326.41	485
448.000	22321.43	484.8
448.100	22316.45	484.5
448.200	22311.47	484.4
448.300	22306.49	484
448.400	22301.52	483.8
448.500	22296.54	483.5
448.600	22291.57	483.4
448.700	22286.61	483.2
448.800	22281.64	482.9
448.900	22276.68	482.7
449.000	22271.71	482.4
449.100	22266.76	482.3
449.200	22261.80	481.9
449.300	22256.84	481.7
449.400	22251.89	481.5
449.500	22246.94	481.3
449.600	22241.99	480.9
449.700	22237.05	480.7
449.800	22232.10	480.5
449.900	22227.16	480.4
450.000	22222.22	480.1
450.100	22217.29	479.7
450.200	22212.35	479.6
450.300	22207.42	479.5
450.400	22202.49	479
450.500	22197.56	478.5
450.600	22192.63	478.4
450.700	22187.71	477.9
450.800	22182.79	477.7
450.900	22177.87	477.3
451.000	22172.95	477.1
451.100	22168.03	476.9
451.200	22163.12	476.8
451.300	22158.21	476.3
451.400	22153.30	476
451.500	22148.39	475.7
451.600	22143.49	475.3
451.700	22138.59	474.9
451.800	22133.69	474.5
451.900	22128.79	474.2
452.000	22123.89	473.8
452.100	22119.00	473.5
452.200	22114.11	473.2
452.300	22109.22	472.9
452.400	22104.33	472.7
452.500	22099.45	472.3
452.600	22094.56	471.7
452.700	22089.68	471.4
452.800	22084.81	471.1
452.900	22079.93	470.6
453.000	22075.06	470.2
453.100	22070.18	469.9
453.200	22065.31	469.6
453.300	22060.45	469.2
453.400	22055.58	469
453.500	22050.72	468.5
453.600	22045.86	468
453.700	22041.00	467.7
453.800	22036.14	467.2
453.900	22031.28	466.9
454.000	22026.43	466.3
454.100	22021.58	466
454.200	22016.73	465.7
454.300	22011.89	465.3
454.400	22007.04	464.9
454.500	22002.20	464.5
454.600	21997.36	464
454.700	21992.52	463.6
454.800	21987.69	463.3
454.900	21982.85	462.9
455.000	21978.02	462.3
455.100	21973.19	461.9
455.200	21968.37	461.3
455.300	21963.54	461.1
455.400	21958.72	460.6
455.500	21953.90	460
455.600	21949.08	459.6
455.700	21944.26	459.1
455.800	21939.45	458.8
455.900	21934.63	458.2
456.000	21929.82	457.8
456.100	21925.02	457.4
456.200	21920.21	457.1
456.300	21915.41	456.7
456.400	21910.60	456.1
456.500	21905.81	455.7
456.600	21901.01	455.2
456.700	21896.21	454.6
456.800	21891.42	454.1
456.900	21886.63	453.5
457.000	21881.84	453.1
457.100	21877.05	452.8
457.200	21872.27	452.2
457.300	21867.48	451.9
457.400	21862.70	451.3
457.500	21857.92	450.8
457.600	21853.15	450.2
457.700	21848.37	449.8
457.800	21843.60	449.1
457.900	21838.83	448.7
458.000	21834.06	448.3
458.100	21829.29	447.7
458.200	21824.53	447.1
458.300	21819.77	446.6
458.400	21815.01	446
458.500	21810.25	445.6
458.600	21805.49	445
458.700	21800.74	444.6
458.800	21795.99	444.2
458.900	21791.24	443.6
459.000	21786.49	443.1
459.100	21781.75	442.4
459.200	21777.00	441.8
459.300	21772.26	441.3
459.400	21767.52	440.7
459.500	21762.79	440.4
459.600	21758.05	439.6
459.700	21753.32	439.1
459.800	21748.59	438.7
459.900	21743.86	438.2
460.000	21739.13	437.5
460.100	21734.41	437.1
460.200	21729.68	436.3
460.300	21724.96	435.8
460.400	21720.24	435.2
460.500	21715.53	434.6
460.600	21710.81	433.9
460.700	21706.10	433.4
460.800	21701.39	432.8
460.900	21696.68	432.1
461.000	21691.97	431.5
461.100	21687.27	430.9
461.200	21682.57	430.5
461.300	21677.87	429.9
461.400	21673.17	429.3
461.500	21668.47	428.5
461.600	21663.78	428
461.700	21659.09	427.4
461.800	21654.40	426.8
461.900	21649.71	426.2
462.000	21645.02	425.6
462.100	21640.34	424.9
462.200	21635.66	424.3
462.300	21630.98	423.7
462.400	21626.30	423.1
462.500	21621.62	422.7
462.600	21616.95	422
462.700	21612.28	421.3
462.800	21607.61	420.7
462.900	21602.94	420.1
463.000	21598.27	419.4
463.100	21593.61	418.8
463.200	21588.95	418.1
463.300	21584.29	417.5
463.400	21579.63	416.9
463.500	21574.97	416.3
463.600	21570.32	415.7
463.700	21565.67	415
463.800	21561.02	414.5
463.900	21556.37	413.8
464.000	21551.72	413.4
464.100	21547.08	412.9
464.200	21542.44	411.9
464.300	21537.80	411.1
464.400	21533.16	410.4
464.500	21528.53	410
464.600	21523.89	409
464.700	21519.26	408.5
464.800	21514.63	407.9
464.900	21510.00	407.2
465.000	21505.38	406.6
465.100	21500.75	405.7
465.200	21496.13	405.1
465.300	21491.51	404.5
465.400	21486.89	403.9
465.500	21482.28	403.3
465.600	21477.66	402.6
465.700	21473.05	401.9
465.800	21468.44	401.2
465.900	21463.83	400.8
466.000	21459.23	400
466.100	21454.62	399.1
466.200	21450.02	398.5
466.300	21445.42	397.7
466.400	21440.82	397
466.500	21436.23	396.2
466.600	21431.63	395.8
466.700	21427.04	394.9
466.800	21422.45	394.1
466.900	21417.86	393.4
467.000	21413.28	392.8
467.100	21408.69	392.3
467.200	21404.11	391.6
467.300	21399.53	390.7
467.400	21394.95	389.9
467.500	21390.37	389.3
467.600	21385.80	388.6
467.700	21381.23	387.9
467.800	21376.66	387.2
467.900	21372.09	386.4
468.000	21367.52	385.7
468.100	21362.96	385.2
468.200	21358.39	384.3
468.300	21353.83	383.6
468.400	21349.27	382.8
468.500	21344.72	382.4
468.600	21340.16	381.4
468.700	21335.61	380.8
468.800	21331.06	380.1
468.900	21326.51	379.2
469.000	21321.96	378.5
469.100	21317.42	377.8
469.200	21312.87	377.2
469.300	21308.33	376.4
469.400	21303.79	375.6
469.500	21299.25	375
469.600	21294.72	374.1
469.700	21290.19	373.4
469.800	21285.65	372.8
469.900	21281.12	371.9
470.000	21276.60	371.2
470.100	21272.07	370.6
470.200	21267.55	369.8
470.300	21263.02	369
470.400	21258.50	368.2
470.500	21253.99	367.5
470.600	21249.47	366.7
470.700	21244.95	366.1
470.800	21240.44	365.3
470.900	21235.93	364.4
471.000	21231.42	363.7
471.100	21226.92	363.3
471.200	21222.41	362.4
471.300	21217.91	361.5
471.400	21213.41	360.8
471.500	21208.91	360
471.600	21204.41	359.4
471.700	21199.92	358.6
471.800	21195.42	357.8
471.900	21190.93	357.1
472.000	21186.44	356.3
472.100	21181.95	355.6
472.200	21177.47	354.6
472.300	21172.98	353.9
472.400	21168.50	353.1
472.500	21164.02	352.4
472.600	21159.54	351.6
472.700	21155.07	350.9
472.800	21150.59	350.2
472.900	21146.12	349.4
473.000	21141.65	348.8
473.100	21137.18	347.9
473.200	21132.71	347
473.300	21128.25	346.3
473.400	21123.79	345.6
473.500	21119.32	344.8
473.600	21114.86	344
473.700	21110.41	343.2
473.800	21105.95	342.4
473.900	21101.50	341.8
474.000	21097.05	341
474.100	21092.60	340.2
474.200	21088.15	339.4
474.300	21083.70	338.6
474.400	21079.26	337.8
474.500	21074.82	337
474.600	21070.38	336.3
474.700	21065.94	335.5
474.800	21061.50	334.8
474.900	21057.06	334
475.000	21052.63	333.3
475.100	21048.20	332.4
475.200	21043.77	331.8
475.300	21039.34	330.9
475.400	21034.92	330.1
475.500	21030.49	329.2
475.600	21026.07	328.4
475.700	21021.65	327.6
475.800	21017.23	326.9
475.900	21012.82	326
476.000	21008.40	325.2
476.100	21003.99	324.5
476.200	20999.58	323.7
476.300	20995.17	322.9
476.400	20990.76	322.1
476.500	20986.36	321.4
476.600	20981.96	320.6
476.700	20977.55	319.9
476.800	20973.15	319.1
476.900	20968.76	318.1
477.000	20964.36	317.5
477.100	20959.97	316.7
477.200	20955.57	315.8
477.300	20951.18	315
477.400	20946.80	314.3
477.500	20942.41	313.5
477.600	20938.02	312.7
477.700	20933.64	311.9
477.800	20929.26	311.1
477.900	20924.88	310.3
478.000	20920.50	309.6
478.100	20916.13	308.9
478.200	20911.75	308
478.300	20907.38	307.3
478.400	20903.01	306.7
478.500	20898.64	305.7
478.600	20894.27	304.7
478.700	20889.91	304
478.800	20885.55	303.3
478.900	20881.19	302.4
479.000	20876.83	301.5
479.100	20872.47	300.8
479.200	20868.11	300.1
479.300	20863.76	299.3
479.400	20859.41	298.5
479.500	20855.06	297.6
479.600	20850.71	296.9
479.700	20846.36	296.2
479.800	20842.02	295.7
479.900	20837.67	294.5
480.000	20833.33	293.7
480.100	20828.99	293.2
480.200	20824.66	292.5
480.300	20820.32	291.4
480.400	20815.99	290.5
480.500	20811.65	289.6
480.600	20807.32	288.8
480.700	20803.00	288.3
480.800	20798.67	287.3
480.900	20794.34	286.5
481.000	20790.02	285.8
481.100	20785.70	284.9
481.200	20781.38	284.2
481.300	20777.06	283.3
481.400	20772.75	282.4
481.500	20768.43	281.8
481.600	20764.12	281
481.700	20759.81	280.3
481.800	20755.50	279.5
481.900	20751.19	278.6
482.000	20746.89	278
482.100	20742.58	277.7
482.200	20738.28	276.6
482.300	20733.98	275.6
482.400	20729.68	274.7
482.500	20725.39	274.1
482.600	20721.09	273.2
482.700	20716.80	272.4
482.800	20712.51	271.6
482.900	20708.22	270.7
483.000	20703.93	269.9
483.100	20699.65	269.2
483.200	20695.36	268.4
483.300	20691.08	267.8
483.400	20686.80	267.1
483.500	20682.52	266.2
483.600	20678.25	265.3
483.700	20673.97	264.6
483.800	20669.70	263.7
483.900	20665.43	263.2
484.000	20661.16	262.2
484.100	20656.89	261.3
484.200	20652.62	260.6
484.300	20648.36	259.9
484.400	20644.10	259.1
484.500	20639.83	258.2
484.600	20635.58	257.7
484.700	20631.32	256.7
484.800	20627.06	255.9
484.900	20622.81	255.1
485.000	20618.56	254.5
485.100	20614.31	253.7
485.200	20610.06	252.8
485.300	20605.81	252.1
485.400	20601.57	251.3
485.500	20597.32	250.4
485.600	20593.08	249.6
485.700	20588.84	249
485.800	20584.60	248.2
485.900	20580.37	247.5
486.000	20576.13	246.7
486.100	20571.90	245.9
486.200	20567.67	245.1
486.300	20563.44	244.4
486.400	20559.21	243.8
486.500	20554.98	242.9
486.600	20550.76	242
486.700	20546.54	241.2
486.800	20542.32	240.4
486.900	20538.10	239.7
487.000	20533.88	239.3
487.100	20529.67	238.7
487.200	20525.45	237.6
487.300	20521.24	236.8
487.400	20517.03	236.2
487.500	20512.82	235.3
487.600	20508.61	234.7
487.700	20504.41	233.8
487.800	20500.21	232.9
487.900	20496.00	232.2
488.000	20491.80	231.7
488.100	20487.60	230.8
488.200	20483.41	229.8
488.300	20479.21	229.3
488.400	20475.02	228.3
488.500	20470.83	227.6
488.600	20466.64	226.8
488.700	20462.45	226.1
488.800	20458.27	225.4
488.900	20454.08	224.6
489.000	20449.90	223.8
489.100	20445.72	223.1
489.200	20441.54	222.3
489.300	20437.36	221.6
489.400	20433.18	221
489.500	20429.01	220.1
489.600	20424.84	219.4
489.700	20420.67	218.8
489.800	20416.50	218
489.900	20412.33	217.1
490.000	20408.16	216.5
490.100	20404.00	215.8
490.200	20399.84	215
490.300	20395.68	214.2
490.400	20391.52	213.6
490.500	20387.36	212.8
490.600	20383.20	212.1
490.700	20379.05	211.5
490.800	20374.90	210.5
490.900	20370.75	209.9
491.000	20366.60	209.1
491.100	20362.45	208.4
491.200	20358.31	207.6
491.300	20354.16	207
491.400	20350.02	206.2
491.500	20345.88	205.6
491.600	20341.74	205
491.700	20337.60	204.2
491.800	20333.47	203.4
491.900	20329.34	202.7
492.000	20325.20	202.1
492.100	20321.07	201.2
492.200	20316.94	200.6
492.300	20312.82	199.8
492.400	20308.69	199.1
492.500	20304.57	198.3
492.600	20300.45	197.6
492.700	20296.33	196.9
492.800	20292.21	196.2
492.900	20288.09	195.5
493.000	20283.98	194.8
493.100	20279.86	194.1
493.200	20275.75	193.8
493.300	20271.64	192.9
493.400	20267.53	192
493.500	20263.42	191.3
493.600	20259.32	190.8
493.700	20255.22	189.9
493.800	20251.11	189.4
493.900	20247.01	188.6
494.000	20242.91	187.8
494.100	20238.82	187.4
494.200	20234.72	186.4
494.300	20230.63	185.9
494.400	20226.54	185
494.500	20222.45	184.3
494.600	20218.36	183.7
494.700	20214.27	182.9
494.800	20210.19	182.3
494.900	20206.10	181.7
495.000	20202.02	181.1
495.100	20197.94	180.3
495.200	20193.86	179.9
495.300	20189.78	179
495.400	20185.71	178.3
495.500	20181.63	177.6
495.600	20177.56	176.9
495.700	20173.49	176.2
495.800	20169.42	175.6
495.900	20165.36	174.9
496.000	20161.29	174.3
496.100	20157.23	173.8
496.200	20153.16	172.9
496.300	20149.10	172.1
496.400	20145.04	171.6
496.500	20140.99	170.9
496.600	20136.93	170.3
496.700	20132.88	169.7
496.800	20128.82	169
496.900	20124.77	168.6
497.000	20120.72	167.7
497.100	20116.68	166.8
497.200	20112.63	166.2
497.300	20108.59	165.7
497.400	20104.54	165
497.500	20100.50	164.5
497.600	20096.46	163.8
497.700	20092.43	163
497.800	20088.39	162.3
497.900	20084.35	161.7
498.000	20080.32	161.2
498.100	20076.29	160.4
498.200	20072.26	160.1
498.300	20068.23	159.2
498.400	20064.21	158.7
498.500	20060.18	158
498.600	20056.16	157.3
498.700	20052.14	156.6
498.800	20048.12	155.9
498.900	20044.10	155.4
499.000	20040.08	154.7
499.100	20036.06	154.2
499.200	20032.05	153.6
499.300	20028.04	152.9
499.400	20024.03	152.3
499.500	20020.02	151.6
499.600	20016.01	151.1
499.700	20012.01	150.4
499.800	20008.00	149.8
499.900	20004.00	149
500.000	20000.00	148.4
500.100	19996.00	147.7
500.200	19992.00	147.3
500.300	19988.01	146.7
500.400	19984.01	146.2
500.500	19980.02	145.7
500.600	19976.03	145
500.700	19972.04	144.2
500.800	19968.05	143.5
500.900	19964.06	143.3
501.000	19960.08	142.4
501.100	19956.10	141.9
501.200	19952.11	141.2
501.300	19948.13	140.6
501.400	19944.16	140.1
501.500	19940.18	139.6
501.600	19936.20	138.9
501.700	19932.23	138.3
501.800	19928.26	137.7
501.900	19924.29	137.2
502.000	19920.32	136.7
502.100	19916.35	136
502.200	19912.39	135.4
502.300	19908.42	135
502.400	19904.46	134.3
502.500	19900.50	133.7
502.600	19896.54	133.2
502.700	19892.58	133.2
502.800	19888.62	132.3
502.900	19884.67	131.5
503.000	19880.72	130.9
503.100	19876.76	130.2
503.200	19872.81	129.9
503.300	19868.87	129.3
503.400	19864.92	128.4
503.500	19860.97	127.9
503.600	19857.03	127.3
503.700	19853.09	126.8
503.800	19849.15	126.3
503.900	19845.21	125.7
504.000	19841.27	125.1
504.100	19837.33	124.6
504.200	19833.40	124
504.300	19829.47	123.4
504.400	19825.54	122.8
504.500	19821.61	122.3
504.600	19817.68	121.8
504.700	19813.75	121.2
504.800	19809.83	120.5
504.900	19805.90	120.2
505.000	19801.98	119.5
505.100	19798.06	119
505.200	19794.14	118.5
505.300	19790.22	117.9
505.400	19786.31	117.4
505.500	19782.39	116.9
505.600	19778.48	116.3
505.700	19774.57	115.9
505.800	19770.66	115.3
505.900	19766.75	114.9
506.000	19762.85	114.4
506.100	19758.94	113.7
506.200	19755.04	113.2
506.300	19751.14	112.6
506.400	19747.24	112.1
506.500	19743.34	111.6
506.600	19739.44	111.1
506.700	19735.54	110.7
506.800	19731.65	110.2
506.900	19727.76	109.7
507.000	19723.87	109.3
507.100	19719.98	108.6
507.200	19716.09	108
507.300	19712.20	107.7
507.400	19708.32	107.1
507.500	19704.43	106.5
507.600	19700.55	106.1
507.700	19696.67	105.6
507.800	19692.79	105.1
507.900	19688.92	104.6
508.000	19685.04	104.1
508.100	19681.17	103.6
508.200	19677.29	103.2
508.300	19673.42	102.7
508.400	19669.55	102.1
508.500	19665.68	101.7
508.600	19661.82	101.2
508.700	19657.95	100.7
508.800	19654.09	100.1
508.900	19650.23	99.63
509.000	19646.37	99.34
509.100	19642.51	98.75
509.200	19638.65	98.34
509.300	19634.79	97.87
509.400	19630.94	97.38
509.500	19627.09	96.79
509.600	19623.23	96.6
509.700	19619.38	95.96
509.800	19615.54	95.55
509.900	19611.69	95.08
510.000	19607.84	94.58
510.100	19604.00	94.17
510.200	19600.16	93.78
510.300	19596.32	93.19
510.400	19592.48	92.84
510.500	19588.64	92.19
510.600	19584.80	91.75
510.700	19580.97	91.27
510.800	19577.13	90.82
510.900	19573.30	90.35
511.000	19569.47	90.09
511.100	19565.64	89.58
511.200	19561.82	89.12
511.300	19557.99	88.65
511.400	19554.17	88.15
511.500	19550.34	87.76
511.600	19546.52	87.34
511.700	19542.70	86.85
511.800	19538.88	86.46
511.900	19535.07	86
512.000	19531.25	85.51
512.100	19527.44	85.17
512.200	19523.62	84.74
512.300	19519.81	84.2
512.400	19516.00	83.74
512.500	19512.20	83.36
512.600	19508.39	82.92
512.700	19504.58	82.59
512.800	19500.78	82.09
512.900	19496.98	81.72
513.000	19493.18	81.3
513.100	19489.38	80.91
513.200	19485.58	80.54
513.300	19481.78	80.11
513.400	19477.99	79.73
513.500	19474.20	79.17
513.600	19470.40	78.8
513.700	19466.61	78.38
513.800	19462.83	78.06
513.900	19459.04	77.57
514.000	19455.25	77.18
514.100	19451.47	76.96
514.200	19447.69	76.34
514.300	19443.90	76.07
514.400	19440.12	75.6
514.500	19436.35	75.23
514.600	19432.57	74.75
514.700	19428.79	74.46
514.800	19425.02	73.96
514.900	19421.25	73.62
515.000	19417.48	73.2
515.100	19413.71	72.95
515.200	19409.94	72.7
515.300	19406.17	72.18
515.400	19402.41	71.6
515.500	19398.64	71.22
515.600	19394.88	71
515.700	19391.12	70.59
515.800	19387.36	70.12
515.900	19383.60	69.9
516.000	19379.84	69.53
516.100	19376.09	68.98
516.200	19372.34	68.62
516.300	19368.58	68.26
516.400	19364.83	67.91
516.500	19361.08	67.54
516.600	19357.34	67.18
516.700	19353.59	66.8
516.800	19349.85	66.54
516.900	19346.10	66.5
517.000	19342.36	66
517.100	19338.62	65.48
517.200	19334.88	65.05
517.300	19331.14	64.84
517.400	19327.41	64.52
517.500	19323.67	64
517.600	19319.94	63.66
517.700	19316.21	63.3
517.800	19312.48	62.98
517.900	19308.75	62.49
518.000	19305.02	62.19
518.100	19301.29	61.97
518.200	19297.57	61.54
518.300	19293.85	61.31
518.400	19290.12	60.95
518.500	19286.40	60.65
518.600	19282.68	60.29
518.700	19278.97	59.77
518.800	19275.25	59.48
518.900	19271.54	59.25
519.000	19267.82	58.86
519.100	19264.11	58.39
519.200	19260.40	58.16
519.300	19256.69	57.81
519.400	19252.98	57.43
519.500	19249.28	57.15
519.600	19245.57	56.87
519.700	19241.87	56.53
519.800	19238.17	56.14
519.900	19234.47	55.94
520.000	19230.77	55.52
520.100	19227.07	55.21
520.200	19223.38	54.91
520.300	19219.68	54.62
520.400	19215.99	54.32
520.500	19212.30	54.12
520.600	19208.61	53.64
520.700	19204.92	53.48
520.800	19201.23	53.14
520.900	19197.54	52.79
521.000	19193.86	52.56
521.100	19190.17	52.25
521.200	19186.49	51.88
521.300	19182.81	51.78
521.400	19179.13	51.32
521.500	19175.46	50.95
521.600	19171.78	50.68
521.700	19168.10	50.24
521.800	19164.43	50.06
521.900	19160.76	49.81
522.000	19157.09	49.41
522.100	19153.42	49.11
522.200	19149.75	48.75
522.300	19146.08	48.55
522.400	19142.42	48.34
522.500	19138.76	48.1
522.600	19135.09	47.64
522.700	19131.43	47.41
522.800	19127.77	47.2
522.900	19124.12	46.99
523.000	19120.46	46.62
523.100	19116.80	46.41
523.200	19113.15	46.1
523.300	19109.50	45.83
523.400	19105.85	45.42
523.500	19102.20	45.18
523.600	19098.55	44.85
523.700	19094.90	44.58
523.800	19091.26	44.35
523.900	19087.61	44.14
524.000	19083.97	43.81
524.100	19080.33	43.53
524.200	19076.69	43.16
524.300	19073.05	42.99
524.400	19069.41	42.77
524.500	19065.78	42.51
524.600	19062.14	42.27
524.700	19058.51	42.03
524.800	19054.88	41.81
524.900	19051.25	41.44
525.000	19047.62	41.26
525.100	19043.99	40.99
525.200	19040.37	40.83
525.300	19036.74	40.7
525.400	19033.12	40.19
525.500	19029.50	39.99
525.600	19025.88	39.71
525.700	19022.26	39.39
525.800	19018.64	39.21
525.900	19015.02	39.01
526.000	19011.41	38.7
526.100	19007.79	38.39
526.200	19004.18	38.2
526.300	19000.57	38.03
526.400	18996.96	37.85
526.500	18993.35	37.64
526.600	18989.75	37.27
526.700	18986.14	36.97
526.800	18982.54	36.93
526.900	18978.93	36.57
527.000	18975.33	36.28
527.100	18971.73	36.14
527.200	18968.13	35.87
527.300	18964.54	35.7
527.400	18960.94	35.35
527.500	18957.35	35.29
527.600	18953.75	35.03
527.700	18950.16	34.81
527.800	18946.57	34.48
527.900	18942.98	34.26
528.000	18939.39	34.15
528.100	18935.81	34.05
528.200	18932.22	33.84
528.300	18928.64	33.54
528.400	18925.06	33.32
528.500	18921.48	33.02
528.600	18917.90	32.78
528.700	18914.32	32.54
528.800	18910.74	32.28
528.900	18907.17	32.27
529.000	18903.59	31.86
529.100	18900.02	31.8
529.200	18896.45	31.58
529.300	18892.88	31.25
529.400	18889.31	30.98
529.500	18885.74	30.8
529.600	18882.18	30.71
529.700	18878.61	30.45
529.800	18875.05	30.2
529.900	18871.49	29.95
530.000	18867.92	29.82
530.100	18864.37	29.65
530.200	18860.81	29.49
530.300	18857.25	29.22
530.400	18853.70	28.97
530.500	18850.14	28.76
530.600	18846.59	28.76
530.700	18843.04	28.54
530.800	18839.49	28.36
530.900	18835.94	28.21
531.000	18832.39	28.15
531.100	18828.85	27.86
531.200	18825.30	27.8
531.300	18821.76	27.46
531.400	18818.22	27.12
531.500	18814.68	27.02
531.600	18811.14	26.69
531.700	18807.60	26.77
531.800	18804.06	26.46
531.900	18800.53	26.24
532.000	18796.99	26.1
532.100	18793.46	25.9
532.200	18789.93	25.8
532.300	18786.40	25.6
532.400	18782.87	25.52
532.500	18779.34	25.26
532.600	18775.82	25.09
532.700	18772.29	24.94
532.800	18768.77	24.85
532.900	18765.25	24.57
533.000	18761.73	24.46
533.100	18758.21	24.17
533.200	18754.69	24.11
533.300	18751.17	23.92
533.400	18747.66	23.77
533.500	18744.14	23.57
533.600	18740.63	23.35
533.700	18737.12	23.16
533.800	18733.61	23.14
533.900	18730.10	22.86
534.000	18726.59	22.63
534.100	18723.09	22.51
534.200	18719.58	22.42
534.300	18716.08	22.27
534.400	18712.57	22.1
534.500	18709.07	22.04
534.600	18705.57	21.75
534.700	18702.08	21.64
534.800	18698.58	21.46
534.900	18695.08	21.4
535.000	18691.59	21.18
535.100	18688.10	21.12
535.200	18684.60	21.16
535.300	18681.11	20.71
535.400	18677.62	20.49
535.500	18674.14	20.64
535.600	18670.65	20.62
535.700	18667.16	20.36
535.800	18663.68	20.16
535.900	18660.20	19.85
536.000	18656.72	19.92
536.100	18653.24	19.57
536.200	18649.76	19.38
536.300	18646.28	19.25
536.400	18642.80	19.14
536.500	18639.33	18.98
536.600	18635.86	18.82
536.700	18632.38	18.64
536.800	18628.91	18.53
536.900	18625.44	18.4
537.000	18621.97	18.27
537.100	18618.51	18.28
537.200	18615.04	18.03
537.300	18611.58	17.89
537.400	18608.11	17.68
537.500	18604.65	17.84
537.600	18601.19	17.24
537.700	18597.73	17.46
537.800	18594.27	17.24
537.900	18590.82	17.16
538.000	18587.36	17.13
538.100	18583.91	16.84
538.200	18580.45	16.75
538.300	18577.00	16.61
538.400	18573.55	16.72
538.500	18570.10	16.54
538.600	18566.65	16.26
538.700	18563.21	16.1
538.800	18559.76	15.97
538.900	18556.32	15.74
539.000	18552.88	15.68
539.100	18549.43	15.75
539.200	18545.99	15.6
539.300	18542.56	15.45
539.400	18539.12	15.45
539.500	18535.68	15.36
539.600	18532.25	15.12
539.700	18528.81	14.89
539.800	18525.38	14.88
539.900	18521.95	14.71
540.000	18518.52	14.6
540.100	18515.09	14.91
540.200	18511.66	14.64
540.300	18508.24	14.32
540.400	18504.81	14.2
540.500	18501.39	14.33
540.600	18497.97	13.9
540.700	18494.54	14.03
540.800	18491.12	13.81
540.900	18487.71	13.58
541.000	18484.29	13.68
541.100	18480.87	13.48
541.200	18477.46	13.32
541.300	18474.04	13.27
541.400	18470.63	13.16
541.500	18467.22	13.25
541.600	18463.81	13.23
541.700	18460.40	13
541.800	18457.00	12.79
541.900	18453.59	12.86
542.000	18450.18	12.58
542.100	18446.78	12.6
542.200	18443.38	12.69
542.300	18439.98	12.46
542.400	18436.58	12.07
542.500	18433.18	12.09
542.600	18429.78	11.95
542.700	18426.39	11.83
542.800	18422.99	11.76
542.900	18419.60	11.66
543.000	18416.21	11.48
543.100	18412.82	11.4
543.200	18409.43	11.35
543.300	18406.04	11.21
543.400	18402.65	11.18
543.500	18399.26	11.11
543.600	18395.88	11.01
543.700	18392.50	10.86
543.800	18389.11	10.82
543.900	18385.73	10.66
544.000	18382.35	10.82
544.100	18378.97	10.62
544.200	18375.60	10.64
544.300	18372.22	10.36
544.400	18368.85	10.17
544.500	18365.47	10.1
544.600	18362.10	10.05
544.700	18358.73	9.938
544.800	18355.36	9.794
544.900	18351.99	9.842
545.000	18348.62	9.84
545.100	18345.26	9.834
545.200	18341.89	9.755
545.300	18338.53	9.888
545.400	18335.17	9.667
545.500	18331.81	9.295
545.600	18328.45	8.912
545.700	18325.09	8.808
545.800	18321.73	9.15
545.900	18318.37	9.03
546.000	18315.02	8.929
546.100	18311.66	9.049
546.200	18308.31	9
546.300	18304.96	8.705
546.400	18301.61	8.734
546.500	18298.26	8.699
546.600	18294.91	8.537
546.700	18291.57	8.52
546.800	18288.22	8.4
546.900	18284.88	8.362
547.000	18281.54	8.217
547.100	18278.19	8.143
547.200	18274.85	8.098
547.300	18271.51	7.953
547.400	18268.18	7.977
547.500	18264.84	7.799
547.600	18261.50	7.84
547.700	18258.17	7.784
547.800	18254.84	7.809
547.900	18251.51	7.575
548.000	18248.18	7.665
548.100	18244.85	7.767
548.200	18241.52	7.622
548.300	18238.19	7.299
548.400	18234.87	7.307
548.500	18231.54	7.371
548.600	18228.22	7.36
548.700	18224.90	7.291
548.800	18221.57	7.085
548.900	18218.25	6.961
549.000	18214.94	7.25
549.100	18211.62	7.233
549.200	18208.30	7.06
549.300	18204.99	6.799
549.400	18201.67	6.855
549.500	18198.36	6.645
549.600	18195.05	6.639
549.700	18191.74	6.615
549.800	18188.43	6.531
549.900	18185.12	6.7
550.000	18181.82	6.825
550.100	18178.51	6.597
550.200	18175.21	6.394
550.300	18171.91	6.112
550.400	18168.60	6.144
550.500	18165.30	6.105
550.600	18162.01	5.928
550.700	18158.71	6.03
550.800	18155.41	5.942
550.900	18152.11	5.936
551.000	18148.82	5.826
551.100	18145.53	5.887
551.200	18142.24	5.627
551.300	18138.94	5.663
551.400	18135.65	5.597
551.500	18132.37	5.63
551.600	18129.08	5.513
551.700	18125.79	5.463
551.800	18122.51	5.472
551.900	18119.22	5.253
552.000	18115.94	5.243
552.100	18112.66	5.082
552.200	18109.38	5.141
552.300	18106.10	5.124
552.400	18102.82	5.093
552.500	18099.55	4.951
552.600	18096.27	5.011
552.700	18093.00	5.136
552.800	18089.73	5.088
552.900	18086.45	4.842
553.000	18083.18	4.815
553.100	18079.91	4.787
553.200	18076.64	4.696
553.300	18073.38	4.716
553.400	18070.11	4.682
553.500	18066.85	4.517
553.600	18063.58	4.609
553.700	18060.32	4.571
553.800	18057.06	4.403
553.900	18053.80	4.515
554.000	18050.54	4.654
554.100	18047.28	4.366
554.200	18044.03	4.273
554.300	18040.77	4.364
554.400	18037.52	4.145
554.500	18034.27	4.194
554.600	18031.01	4.026
554.700	18027.76	4.2
554.800	18024.51	4.271
554.900	18021.27	4.165
555.000	18018.02	4.131
555.100	18014.77	3.959
555.200	18011.53	3.89
555.300	18008.28	3.939
555.400	18005.04	3.983
555.500	18001.80	3.904
555.600	17998.56	3.732
555.700	17995.32	3.789
555.800	17992.08	3.751
555.900	17988.85	3.711
556.000	17985.61	3.705
556.100	17982.38	3.837
556.200	17979.14	3.716
556.300	17975.91	3.616
556.400	17972.68	3.849
556.500	17969.45	3.628
556.600	17966.22	3.47
556.700	17963.00	3.421
556.800	17959.77	3.351
556.900	17956.55	3.272
557.000	17953.32	3.11
557.100	17950.10	3.287
557.200	17946.88	3.207
557.300	17943.66	3.191
557.400	17940.44	3.213
557.500	17937.22	3.141
557.600	17934.00	2.954
557.700	17930.79	3.096
557.800	17927.57	3.042
557.900	17924.36	3.021
558.000	17921.15	3.004
558.100	17917.94	2.91
558.200	17914.73	3.086
558.300	17911.52	3.067
558.400	17908.31	2.935
558.500	17905.10	2.822
558.600	17901.90	2.814
558.700	17898.69	2.977
558.800	17895.49	2.751
558.900	17892.29	2.699
559.000	17889.09	2.753
559.100	17885.89	2.777
559.200	17882.69	2.715
559.300	17879.49	2.743
559.400	17876.30	2.737
559.500	17873.10	2.699
559.600	17869.91	2.586
559.700	17866.71	2.631
559.800	17863.52	2.472
559.900	17860.33	2.532
560.000	17857.14	2.361
560.100	17853.95	2.484
560.200	17850.77	2.296
560.300	17847.58	2.329
560.400	17844.40	2.363
560.500	17841.21	2.296
560.600	17838.03	2.282
560.700	17834.85	2.209
560.800	17831.67	2.283
560.900	17828.49	2.162
561.000	17825.31	2.196
561.100	17822.14	2.115
561.200	17818.96	2.054
561.300	17815.78	2.102
561.400	17812.61	2.15
561.500	17809.44	2.097
561.600	17806.27	2.028
561.700	17803.10	2.062
561.800	17799.93	2.04
561.900	17796.76	2.056
562.000	17793.59	2.09
562.100	17790.43	2.207
562.200	17787.26	2.172
562.300	17784.10	2.061
562.400	17780.94	1.834
562.500	17777.78	2.02
562.600	17774.62	1.803
562.700	17771.46	1.866
562.800	17768.30	1.841
562.900	17765.14	1.735
563.000	17761.99	1.857
563.100	17758.84	1.732
563.200	17755.68	1.834
563.300	17752.53	1.728
563.400	17749.38	1.726
563.500	17746.23	1.792
563.600	17743.08	1.672
563.700	17739.93	1.671
563.800	17736.79	1.682
563.900	17733.64	1.589
564.000	17730.50	1.661
564.100	17727.35	1.682
564.200	17724.21	1.547
564.300	17721.07	1.588
564.400	17717.93	1.645
564.500	17714.79	1.528
564.600	17711.65	1.512
564.700	17708.52	1.649
564.800	17705.38	1.575
564.900	17702.25	1.565
565.000	17699.12	1.647
565.100	17695.98	1.538
565.200	17692.85	1.57
565.300	17689.72	1.567
565.400	17686.59	1.552
565.500	17683.47	1.659
565.600	17680.34	1.408
565.700	17677.21	1.503
565.800	17674.09	1.44
565.900	17670.97	1.707
566.000	17667.84	1.295
566.100	17664.72	1.346
566.200	17661.60	1.42
566.300	17658.48	1.284
566.400	17655.37	1.467
566.500	17652.25	1.629
566.600	17649.14	1.448
566.700	17646.02	1.285
566.800	17642.91	1.267
566.900	17639.80	1.238
567.000	17636.68	1.324
567.100	17633.57	1.243
567.200	17630.47	1.134
567.300	17627.36	1.079
567.400	17624.25	1.191
567.500	17621.15	1.119
567.600	17618.04	1.051
567.700	17614.94	1.144
567.800	17611.84	1.067
567.900	17608.73	1.022
568.000	17605.63	0.9782
568.100	17602.53	1.063
568.200	17599.44	0.9727
568.300	17596.34	1.054
568.400	17593.24	0.9291
568.500	17590.15	0.8832
568.600	17587.06	1.052
568.700	17583.96	0.7684
568.800	17580.87	0.8716
568.900	17577.78	0.8447
569.000	17574.69	0.9235
569.100	17571.60	0.8176
569.200	17568.52	0.8512
569.300	17565.43	0.921
569.400	17562.35	0.8043
569.500	17559.26	0.7625
569.600	17556.18	0.784
569.700	17553.10	0.8962
569.800	17550.02	0.9492
569.900	17546.94	0.7874
570.000	17543.86	0.7602
570.100	17540.78	0.7911
570.200	17537.71	0.7305
570.300	17534.63	0.7785
570.400	17531.56	0.6468
570.500	17528.48	0.7278
570.600	17525.41	0.707
570.700	17522.34	0.7446
570.800	17519.27	0.7185
570.900	17516.20	0.6383
571.000	17513.13	0.69
571.100	17510.07	0.7562
571.200	17507.00	0.6706
571.300	17503.94	0.6538
571.400	17500.88	0.5639
571.500	17497.81	0.579
571.600	17494.75	0.4613
571.700	17491.69	0.6724
571.800	17488.63	0.5508
571.900	17485.57	0.8523
572.000	17482.52	0.548
572.100	17479.46	0.5331
572.200	17476.41	0.5793
572.300	17473.35	0.6924
572.400	17470.30	0.5873
572.500	17467.25	0.5002
572.600	17464.20	0.7233
572.700	17461.15	0.6845
572.800	17458.10	0.4214
572.900	17455.05	0.5165
573.000	17452.01	0.4413
573.100	17448.96	0.5445
573.200	17445.92	0.5884
573.300	17442.87	0.5442
573.400	17439.83	0.4972
573.500	17436.79	0.3754
573.600	17433.75	0.5781
573.700	17430.71	0.3683
573.800	17427.68	0.4861
573.900	17424.64	0.3524
574.000	17421.60	0.6723
574.100	17418.57	0.4859
574.200	17415.53	0.504
574.300	17412.50	0.384
574.400	17409.47	0.5244
574.500	17406.44	0.5379
574.600	17403.41	0.5799
574.700	17400.38	0.4098
574.800	17397.36	0.4194
574.900	17394.33	0.5397
575.000	17391.30	0.5098
575.100	17388.28	0.4973
575.200	17385.26	0.5362
575.300	17382.24	0.4716
575.400	17379.21	0.513
575.500	17376.19	0.4772
575.600	17373.18	0.4504
575.700	17370.16	0.312
575.800	17367.14	0.3527
575.900	17364.13	0.514
576.000	17361.11	0.3738
576.100	17358.10	0.509
576.200	17355.09	0.5156
576.300	17352.07	0.4705
576.400	17349.06	0.3609
576.500	17346.05	0.3665
576.600	17343.05	0.3878
576.700	17340.04	0.5912
576.800	17337.03	0.4533
576.900	17334.03	0.3048
577.000	17331.02	0.2124
577.100	17328.02	0.4837
577.200	17325.02	0.7585
577.300	17322.02	0.5093
577.400	17319.02	0.3296
577.500	17316.02	0.3062
577.600	17313.02	0.1647
577.700	17310.02	0.1954
577.800	17307.03	0.2889
577.900	17304.03	0.2974
578.000	17301.04	0.2519
578.100	17298.05	0.1999
578.200	17295.05	0.2564
578.300	17292.06	0.2069
578.400	17289.07	0.2528
578.500	17286.08	0.1691
578.600	17283.10	0.2778
578.700	17280.11	0.1699
578.800	17277.13	0.2146
578.900	17274.14	0.2592
579.000	17271.16	0.2919
579.100	17268.17	0.3273
579.200	17265.19	0.3366
579.300	17262.21	0.5311
579.400	17259.23	0.4075
579.500	17256.26	0.4314
579.600	17253.28	0.2542
579.700	17250.30	0.2635
579.800	17247.33	0.2456
579.900	17244.35	0.2233
580.000	17241.38	0.09499
580.100	17238.41	0.1218
580.200	17235.44	0.1377
580.300	17232.47	0.1659
580.400	17229.50	0.3419
580.500	17226.53	0.3759
580.600	17223.56	0.2107
580.700	17220.60	0.317
580.800	17217.63	0.2207
580.900	17214.67	0.05932
581.000	17211.70	0.1924
581.100	17208.74	0.109
581.200	17205.78	0.1601
581.300	17202.82	0.1932
581.400	17199.86	0.06411
581.500	17196.90	0.226
581.600	17193.95	0.1162
581.700	17190.99	0.08931
581.800	17188.04	0.1096
581.900	17185.08	0.1206
582.000	17182.13	0.2569
582.100	17179.18	0.002944
582.200	17176.23	0.07558
582.300	17173.28	0.04423
582.400	17170.33	0.1287
582.500	17167.38	0.1007
582.600	17164.44	0.07384
582.700	17161.49	0.3032
582.800	17158.54	0.3189
582.900	17155.60	0.2414
583.000	17152.66	0.03545
583.100	17149.72	0.08316
583.200	17146.78	0.3009
583.300	17143.84	0.3131
583.400	17140.90	0.1113
583.500	17137.96	0.2396
583.600	17135.02	0.1035
583.700	17132.09	0.233
583.800	17129.15	0.2275
583.900	17126.22	0.1152
584.000	17123.29	0.05582
584.100	17120.36	0.1418
584.200	17117.43	0.09006
584.300	17114.50	-0.02963
584.400	17111.57	-0.004358
584.500	17108.64	0.06796
584.600	17105.71	0.1539
584.700	17102.79	0.1661
584.800	17099.86	0.1138
584.900	17096.94	0.1358
585.000	17094.02	0.03169
585.100	17091.10	0.4498
585.200	17088.17	0.0959
585.300	17085.26	0.07937
585.400	17082.34	0.1655
585.500	17079.42	0.04987
585.600	17076.50	0.1991
585.700	17073.59	0.1005
585.800	17070.67	0.01977
585.900	17067.76	0.0969
586.000	17064.85	0.03548
586.100	17061.93	0.0469
586.200	17059.02	0.03308
586.300	17056.11	0.0573
586.400	17053.21	-0.01783
586.500	17050.30	0.1245
586.600	17047.39	0.03519
586.700	17044.49	-0.07365
586.800	17041.58	0.1467
586.900	17038.68	0.0671
587.000	17035.78	-0.0694
587.100	17032.87	-0.09742
587.200	17029.97	0.01244
587.300	17027.07	0.04194
587.400	17024.17	0.06666
587.500	17021.28	-0.01552
587.600	17018.38	-0.08016
587.700	17015.48	0.1535
587.800	17012.59	0.1412
587.900	17009.70	0.09982
588.000	17006.80	0.02674
588.100	17003.91	0.1605
588.200	17001.02	-0.006953
588.300	16998.13	0.0951
588.400	16995.24	0.1046
588.500	16992.35	0.01108
588.600	16989.47	-0.03476
588.700	16986.58	-0.005767
588.800	16983.70	0.04304
588.900	16980.81	0.0988
589.000	16977.93	0.006482
589.100	16975.05	0.002423
589.200	16972.17	0.08104
589.300	16969.29	0.08841
589.400	16966.41	-0.03281
589.500	16963.53	0.05044
589.600	16960.65	-0.005145
589.700	16957.78	0.1905
589.800	16954.90	0.08314
589.900	16952.03	-0.03487
590.000	16949.15	-0.03516
590.100	16946.28	0.05965
590.200	16943.41	0.03171
590.300	16940.54	-0.0667
590.400	16937.67	0.04982
590.500	16934.80	0.1794
590.600	16931.93	0.05261
590.700	16929.07	-0.02944
590.800	16926.20	-0.04309
590.900	16923.34	0.2334
591.000	16920.47	0.003229
591.100	16917.61	-0.06936
591.200	16914.75	-0.05785
591.300	16911.89	0.002625
591.400	16909.03	-0.0178
591.500	16906.17	0.03269
591.600	16903.31	-0.07754
591.700	16900.46	-0.04039
591.800	16897.60	0.07925
591.900	16894.75	-0.05574
592.000	16891.89	-0.1378
592.100	16889.04	-0.1211
592.200	16886.19	0.08489
592.300	16883.34	-0.1127
592.400	16880.49	-0.1214
592.500	16877.64	0.1221
592.600	16874.79	0.06163
592.700	16871.94	0.03738
592.800	16869.10	0.04719
592.900	16866.25	0.01949
593.000	16863.41	-0.01431
593.100	16860.56	0.1857
593.200	16857.72	0.08557
593.300	16854.88	0.005289
593.400	16852.04	-0.07672
593.500	16849.20	0.1313
593.600	16846.36	0.03649
593.700	16843.52	-0.144
593.800	16840.69	0.01797
593.900	16837.85	-0.06096
594.000	16835.02	0.0436
594.100	16832.18	0.01474
594.200	16829.35	-0.03692
594.300	16826.52	-0.004433
594.400	16823.69	-0.03063
594.500	16820.86	0.0407
594.600	16818.03	-0.07936
594.700	16815.20	0.0424
594.800	16812.37	0.0224
594.900	16809.55	-0.004486
595.000	16806.72	0.1192
595.100	16803.90	0.09369
595.200	16801.08	-0.0143
595.300	16798.25	-0.04917
595.400	16795.43	0.1959
595.500	16792.61	-0.05446
595.600	16789.79	0.03649
595.700	16786.97	0.05861
595.800	16784.16	-0.03774
595.900	16781.34	-0.01308
596.000	16778.52	0.05963
596.100	16775.71	0.1359
596.200	16772.90	-0.06144
596.300	16770.08	-0.1094
596.400	16767.27	-0.1328
596.500	16764.46	-0.04203
596.600	16761.65	-0.05802
596.700	16758.84	0.1058
596.800	16756.03	0.03676
596.900	16753.22	-0.1206
597.000	16750.42	-0.0864
597.100	16747.61	0.1029
597.200	16744.81	0.07074
597.300	16742.01	0.09344
597.400	16739.20	0.0474
597.500	16736.40	-0.1354
597.600	16733.60	0.03672
597.700	16730.80	0.0743
597.800	16728.00	-0.04141
597.900	16725.20	0.01638
598.000	16722.41	-0.02428
598.100	16719.61	-0.08984
598.200	16716.82	0.01921
598.300	16714.02	-0.002821
598.400	16711.23	0.02732
598.500	16708.44	0.002709
598.600	16705.65	-0.0465
598.700	16702.86	-0.01604
598.800	16700.07	0.06646
598.900	16697.28	-0.1418
599.000	16694.49	-0.05453
599.100	16691.70	-0.08362
599.200	16688.92	0.01237
599.300	16686.13	0.08952
599.400	16683.35	-0.03094
599.500	16680.57	-0.1044
599.600	16677.79	-0.0884
599.700	16675.00	0.02631
599.800	16672.22	-0.1615
599.900	16669.44	-0.003473
