Wavelength [nm]	Wavenumbers [1/cm]	Intensity
175.764	56894.47	8.276
176.337	56709.57	33.89
176.910	56525.87	12.58
177.483	56343.35	46.23
178.056	56162.01	23.5
178.629	55981.83	17.66
179.202	55802.81	26.55
179.776	55624.92	30.18
180.349	55448.17	38.92
180.922	55272.54	29.09
181.495	55098.01	21.55
182.068	54924.58	37.04
182.641	54752.25	31.8
183.214	54580.99	10.87
183.787	54410.80	15.66
184.360	54241.66	17.91
184.933	54073.58	34.41
185.506	53906.53	55.96
186.079	53740.51	39.69
186.652	53575.51	14.91
187.226	53411.52	26.99
187.799	53248.54	42.83
188.372	53086.54	40.73
188.945	52925.53	24.63
189.518	52765.49	8.29
190.091	52606.41	23.13
190.664	52448.30	35.39
191.237	52291.12	28.33
191.810	52134.89	22.47
192.383	51979.59	35.91
192.956	51825.21	33.58
193.529	51671.75	36.05
194.102	51519.19	51.48
194.675	51367.53	40.64
195.249	51216.76	17.83
195.822	51066.88	13.59
196.395	50917.87	17.91
196.968	50769.72	31.48
197.541	50622.43	14.07
198.114	50476.00	25.04
198.687	50330.41	4.471
199.260	50185.66	38.02
199.833	50041.74	7.827
200.406	49898.64	30.86
200.979	49756.36	24.17
201.552	49614.89	25.15
202.125	49474.22	42.12
202.699	49334.34	53.53
203.272	49195.26	26.26
203.845	49056.95	8.82
204.418	48919.42	25.22
204.991	48782.66	25.2
205.564	48646.67	23.69
206.137	48511.42	37.54
206.710	48376.93	44.47
207.283	48243.19	27.62
207.856	48110.18	1.265
208.429	47977.90	-5.17
209.002	47846.34	9.776
209.575	47715.51	16.71
210.149	47585.39	19.16
210.722	47455.98	30.7
211.295	47327.27	-2.957
211.868	47199.25	1.287
212.441	47071.93	34.3
213.014	46945.29	-10.39
213.587	46819.33	17.55
214.160	46694.05	-1.648
214.733	46569.43	-0.7514
215.306	46445.48	2.392
215.879	46322.18	-16.02
216.452	46199.54	3.676
217.025	46077.55	7.681
217.599	45956.19	7.231
218.172	45835.48	-9.018
218.745	45715.40	-9.708
219.318	45595.95	-5.477
219.891	45477.11	-18.71
220.464	45358.90	-18.59
221.037	45241.30	-12.87
221.610	45124.31	-24.98
222.183	45007.92	-24.65
222.756	44892.13	-26.04
223.329	44776.93	-10.24
223.902	44662.33	-9.915
224.475	44548.31	-3.726
225.049	44434.87	-14.04
225.622	44322.00	16.08
226.195	44209.71	-6.086
226.768	44097.98	-17.1
227.341	43986.82	-27.81
227.914	43876.22	-3.193
228.487	43766.17	-16.43
229.060	43656.68	-17.28
229.633	43547.73	-8.146
230.206	43439.32	-7.78
230.779	43331.45	-8.543
231.352	43224.11	-20.29
231.925	43117.31	-31.24
232.498	43011.03	-18.94
233.072	42905.28	-27.7
233.645	42800.04	-40.35
234.218	42695.32	-21.25
234.791	42591.11	-34.65
235.364	42487.41	-34.26
235.937	42384.21	-7.504
236.510	42281.51	-2.599
237.083	42179.30	-23.15
237.656	42077.59	-11.09
238.229	41976.37	-31.9
238.802	41875.64	-32.16
239.375	41775.39	-32.06
239.948	41675.61	-22.58
240.522	41576.32	-7.513
241.095	41477.49	-16.79
241.668	41379.13	-42.2
242.241	41281.24	-11.51
242.814	41183.81	-11.99
243.387	41086.84	1.903
243.960	40990.33	-0.978
244.533	40894.26	2.1
245.106	40798.65	-6.061
245.679	40703.48	-12.69
246.252	40608.76	-2.274
246.825	40514.47	-8.451
247.398	40420.62	-13.83
247.972	40327.21	-0.08231
248.545	40234.23	-5.394
249.118	40141.67	-0.2851
249.691	40049.54	3.482
250.264	39957.83	-3.416
250.837	39866.54	-6.439
251.410	39775.67	-12.42
251.983	39685.21	-32.1
252.556	39595.16	-16.55
253.129	39505.52	-30.8
253.702	39416.28	-7.47
254.275	39327.44	-18.91
254.848	39239.01	-13.5
255.422	39150.97	-11.48
255.995	39063.33	-22.32
256.568	38976.07	-4.345
257.141	38889.21	6.587
257.714	38802.73	2.172
258.287	38716.64	-22.38
258.860	38630.93	-11.53
259.433	38545.59	3.355
260.006	38460.63	-10.72
260.579	38376.05	-10.15
261.152	38291.84	-1.167
261.725	38207.99	0.122
262.298	38124.51	6.286
262.871	38041.40	-8.402
263.445	37958.65	-15.81
264.018	37876.26	3.002
264.591	37794.22	-25.65
265.164	37712.54	-32.73
265.737	37631.21	-24.01
266.310	37550.23	-22.32
266.883	37469.60	-7.419
267.456	37389.31	-5.657
268.029	37309.37	-18.04
268.602	37229.77	-11.12
269.175	37150.51	-2.773
269.748	37071.58	-12.65
270.321	36992.99	-15.81
270.895	36914.73	-10.44
271.468	36836.80	-13.44
272.041	36759.20	-0.521
272.614	36681.93	-4.873
273.187	36604.98	-10.24
273.760	36528.35	-3.905
274.333	36452.05	-2.688
274.906	36376.06	-5.542
275.479	36300.39	-9.517
276.052	36225.03	-8.606
276.625	36149.98	-12.12
277.198	36075.25	-0.9269
277.771	36000.82	-4.963
278.345	35926.70	-12.83
278.918	35852.88	-26.93
279.491	35779.37	-11.86
280.064	35706.15	-28.85
280.637	35633.24	-33.33
281.210	35560.62	0.6283
281.783	35488.30	1.228
282.356	35416.27	-18.12
282.929	35344.54	-13.53
283.502	35273.09	6.043
284.075	35201.93	8.897
284.648	35131.06	-3.996
285.221	35060.48	-10.57
285.795	34990.17	-6.416
286.368	34920.15	-13.11
286.941	34850.41	-9.464
287.514	34780.95	-6.636
288.087	34711.76	-3.871
288.660	34642.84	6.385
289.233	34574.20	6.496
289.806	34505.84	3.958
290.379	34437.74	6.549
290.952	34369.91	4.53
291.525	34302.34	-0.6067
292.098	34235.04	-11.44
292.671	34168.01	9.818
293.245	34101.24	1.73
293.818	34034.72	2.787
294.391	33968.47	-33.33
294.964	33902.47	5.918
295.537	33836.73	-6.745
296.110	33771.25	-11.04
296.683	33706.01	-7.63
297.256	33641.03	5.212
297.829	33576.30	3.105
298.402	33511.82	7.297
298.975	33447.58	-14.75
299.548	33383.59	-11.63
300.121	33319.85	8.703
300.694	33256.35	28.61
301.268	33193.09	10.32
301.841	33130.06	-11.3
302.414	33067.28	-4.186
302.987	33004.74	5.112
303.560	32942.43	4.884
304.133	32880.36	5.863
304.706	32818.52	7.045
305.279	32756.91	10.31
305.852	32695.53	11.25
306.425	32634.39	6.891
306.998	32573.47	23.85
307.571	32512.78	26.73
308.144	32452.31	24.15
308.718	32392.07	28.49
309.291	32332.05	36.14
309.864	32272.25	10.63
310.437	32212.68	69.88
311.010	32153.32	38.35
311.583	32094.18	41.79
312.156	32035.26	37.93
312.729	31976.56	56.63
313.302	31918.07	45.75
313.875	31859.79	48.7
314.448	31801.73	43.38
315.021	31743.88	68.67
315.594	31686.23	57.08
316.168	31628.80	75.46
316.741	31571.58	77.81
317.314	31514.56	62.93
317.887	31457.74	65.3
318.460	31401.13	79.71
319.033	31344.73	87.72
319.606	31288.53	97.71
320.179	31232.52	115.1
320.752	31176.72	127.3
321.325	31121.12	143.1
321.898	31065.71	121.4
322.471	31010.51	143.4
323.044	30955.49	201
323.618	30900.68	209.4
324.191	30846.05	211.3
324.764	30791.62	235.2
325.337	30737.38	229.2
325.910	30683.33	270.9
326.483	30629.48	309.3
327.056	30575.81	366.8
327.629	30522.32	438.5
328.202	30469.03	566.3
328.775	30415.92	719.3
329.348	30363.00	948.7
329.921	30310.25	1265
330.494	30257.70	1681
331.067	30205.32	2206
331.641	30153.13	2850
332.214	30101.11	3694
332.787	30049.28	4831
333.360	29997.62	6235
333.933	29946.14	7824
334.506	29894.83	9572
335.079	29843.71	1.153E4
335.652	29792.75	1.396E4
336.225	29741.97	1.7E4
336.798	29691.37	2.044E4
337.371	29640.93	2.388E4
337.944	29590.67	2.678E4
338.517	29540.57	2.938E4
339.091	29490.65	3.222E4
339.664	29440.89	3.548E4
340.237	29391.30	3.9E4
340.810	29341.88	4.132E4
341.383	29292.62	4.211E4
341.956	29243.53	4.108E4
342.529	29194.61	3.895E4
343.102	29145.84	3.632E4
343.675	29097.24	3.37E4
344.248	29048.81	3.041E4
344.821	29000.53	2.664E4
345.394	28952.41	2.254E4
345.967	28904.45	1.868E4
346.541	28856.65	1.536E4
347.114	28809.01	1.276E4
347.687	28761.53	1.083E4
348.260	28714.20	9394
348.833	28667.03	8222
349.406	28620.01	7123
349.979	28573.14	6098
350.552	28526.43	5174
351.125	28479.87	4406
351.698	28433.47	3802
352.271	28387.21	3263
352.844	28341.11	2791
353.417	28295.15	2400
353.991	28249.34	2027
354.564	28203.68	1695
355.137	28158.17	1430
355.710	28112.81	1219
356.283	28067.59	1088
356.856	28022.52	956.2
357.429	27977.59	846.5
358.002	27932.80	775.8
358.575	27888.16	706.3
359.148	27843.66	663.9
359.721	27799.30	608.3
360.294	27755.08	562.5
360.867	27711.01	565.3
361.441	27667.07	531
362.014	27623.27	465.6
362.587	27579.61	436.5
363.160	27536.09	415
363.733	27492.71	402
364.306	27449.46	382.4
364.879	27406.35	388.7
365.452	27363.37	385.8
366.025	27320.53	367.5
366.598	27277.82	330.9
367.171	27235.25	311.1
367.744	27192.80	300.3
368.317	27150.49	275.9
368.890	27108.32	267.6
369.464	27066.27	267.7
370.037	27024.35	247.9
370.610	26982.56	240.7
371.183	26940.90	237.8
371.756	26899.37	213
372.329	26857.97	211.8
372.902	26816.70	176.5
373.475	26775.55	191.2
374.048	26734.52	189
374.621	26693.63	176.5
375.194	26652.86	159.6
375.767	26612.21	149.4
376.340	26571.68	150.1
376.914	26531.28	135.8
377.487	26491.00	128.7
378.060	26450.85	136.4
378.633	26410.81	104.1
379.206	26370.90	110.7
379.779	26331.11	108.2
380.352	26291.44	107.3
380.925	26251.88	94.46
381.498	26212.45	93.19
382.071	26173.13	77.43
382.644	26133.93	84.36
383.217	26094.85	85.19
383.790	26055.89	85.93
384.364	26017.04	75.21
384.937	25978.30	57.78
385.510	25939.69	51.43
386.083	25901.18	44.64
386.656	25862.79	42.39
387.229	25824.52	52.73
387.802	25786.36	59.96
388.375	25748.31	56.8
388.948	25710.37	44.69
389.521	25672.54	35.63
390.094	25634.83	37.96
390.667	25597.22	41.01
391.240	25559.73	46.31
391.814	25522.35	49.2
392.387	25485.07	55.1
392.960	25447.90	40.66
393.533	25410.85	38.38
394.106	25373.90	16.72
394.679	25337.05	8.313
395.252	25300.32	62.11
395.825	25263.69	25.73
396.398	25227.16	13.92
396.971	25190.74	30.19
397.544	25154.43	21.36
398.117	25118.22	2.912
398.690	25082.12	33.87
399.263	25046.12	25.46
399.837	25010.22	22.58
400.410	24974.42	39.87
400.983	24938.73	10.77
401.556	24903.14	5.346
402.129	24867.65	-5.741
402.702	24832.26	-6.653
403.275	24796.97	5.153
403.848	24761.79	-2.162
404.421	24726.70	-14.76
404.994	24691.71	-12.57
405.567	24656.82	3.653
406.140	24622.03	14.04
406.713	24587.33	7.663
407.287	24552.74	3.08
407.860	24518.24	12.52
408.433	24483.84	16.75
409.006	24449.53	0.1254
409.579	24415.32	-2.891
410.152	24381.21	10.19
410.725	24347.19	14.02
411.298	24313.27	10.23
411.871	24279.44	3.798
412.444	24245.70	8.743
413.017	24212.06	-5.018
413.590	24178.51	-14.62
414.163	24145.06	11.52
414.737	24111.69	10.45
415.310	24078.42	1.457
415.883	24045.24	2.096
416.456	24012.15	0.2906
417.029	23979.16	6.101
417.602	23946.25	-3.846
418.175	23913.43	19.44
418.748	23880.71	10.95
419.321	23848.07	-12.49
419.894	23815.52	2.209
420.467	23783.06	-5.977
421.040	23750.69	1.33
421.613	23718.41	-1.888
422.187	23686.21	3.064
422.760	23654.11	9.492
423.333	23622.08	-1.771
423.906	23590.15	-7.489
424.479	23558.30	4.609
425.052	23526.54	-0.8121
425.625	23494.86	-5.317
426.198	23463.27	8.957
426.771	23431.76	3.671
427.344	23400.34	-8.071
427.917	23369.00	-3.075
428.490	23337.75	-7.218
429.063	23306.58	-2.561
429.637	23275.49	12.32
430.210	23244.48	4.266
430.783	23213.56	16.02
431.356	23182.72	26.45
431.929	23151.96	19.91
432.502	23121.29	16.45
433.075	23090.69	-1.818
433.648	23060.18	1.454
434.221	23029.74	14.1
434.794	22999.39	20.76
435.367	22969.11	10.29
435.940	22938.92	20.84
436.513	22908.80	-6.419
437.086	22878.77	-14.57
437.660	22848.81	7.095
438.233	22818.93	24.79
438.806	22789.13	15.74
439.379	22759.41	0.087
439.952	22729.76	-0.3961
440.525	22700.19	22.15
441.098	22670.70	5.089
441.671	22641.28	-9.101
442.244	22611.94	-2.908
442.817	22582.68	-1.219
443.390	22553.49	-2.747
443.963	22524.38	-8.644
444.536	22495.34	-2.438
445.110	22466.38	18.99
445.683	22437.49	31.61
446.256	22408.68	10.37
446.829	22379.94	-0.4198
447.402	22351.27	1.557
447.975	22322.68	0.7829
448.548	22294.16	7.784
449.121	22265.71	5.151
449.694	22237.34	7.273
450.267	22209.03	12.45
450.840	22180.80	-2.645
451.413	22152.64	2.825
451.986	22124.56	3.339
452.560	22096.54	-7.736
453.133	22068.60	6.015
453.706	22040.72	12.27
454.279	22012.92	16.34
454.852	21985.18	14.67
455.425	21957.52	11.68
455.998	21929.92	15.34
456.571	21902.40	24.79
457.144	21874.94	21.57
457.717	21847.55	2.917
458.290	21820.23	33.97
458.863	21792.98	20.33
459.436	21765.80	27.98
460.010	21738.68	1.931
460.583	21711.63	9.062
461.156	21684.65	18.98
461.729	21657.74	14.03
462.302	21630.89	10.74
462.875	21604.11	19.97
463.448	21577.40	25.02
464.021	21550.75	18.75
464.594	21524.16	9.337
465.167	21497.65	14.4
465.740	21471.19	-0.8162
466.313	21444.81	3.888
466.886	21418.49	17.06
467.459	21392.23	7.51
468.033	21366.03	9.383
468.606	21339.90	13.5
469.179	21313.84	11.95
469.752	21287.84	-0.8368
470.325	21261.90	11.69
470.898	21236.02	19.7
471.471	21210.21	17.34
472.044	21184.46	18.91
472.617	21158.77	29.62
473.190	21133.15	41.6
473.763	21107.59	38.52
474.336	21082.08	16.65
474.909	21056.64	-3.97
475.483	21031.27	14.31
476.056	21005.95	29.89
476.629	20980.69	19.25
477.202	20955.50	24.75
477.775	20930.36	24.88
478.348	20905.29	11.63
478.921	20880.27	7.786
479.494	20855.31	12.11
480.067	20830.42	14.99
480.640	20805.58	16.04
481.213	20780.80	-0.6288
481.786	20756.09	23.23
482.359	20731.43	37.2
482.933	20706.83	15.05
483.506	20682.28	9.175
484.079	20657.80	26.51
484.652	20633.37	31.46
485.225	20609.00	34.8
485.798	20584.69	13.6
486.371	20560.44	26.56
486.944	20536.24	10.73
487.517	20512.10	0.9796
488.090	20488.02	6.724
488.663	20463.99	9.047
489.236	20440.02	47.7
489.809	20416.10	12.99
490.383	20392.24	14.08
490.956	20368.44	12.64
491.529	20344.69	20.45
492.102	20321.00	18.06
492.675	20297.36	28.76
493.248	20273.78	22
493.821	20250.25	18.35
494.394	20226.78	24.82
494.967	20203.36	27.05
495.540	20180.00	30.2
496.113	20156.69	26.97
496.686	20133.43	18.47
497.259	20110.23	21.09
497.833	20087.08	31.72
498.406	20063.98	20.09
498.979	20040.94	13.52
499.552	20017.95	14.03
500.125	19995.01	13.53
500.698	19972.12	19.57
501.271	19949.29	14.17
501.844	19926.51	14.45
502.417	19903.78	17.88
502.990	19881.10	9.141
503.563	19858.48	16.69
504.136	19835.90	26.94
504.709	19813.38	23.11
505.282	19790.91	20.16
505.856	19768.49	15.33
506.429	19746.12	13.72
507.002	19723.80	9.211
507.575	19701.53	14.95
508.148	19679.31	16.06
508.721	19657.14	4.591
509.294	19635.02	17.21
509.867	19612.95	13.74
510.440	19590.93	5.442
511.013	19568.96	28.74
511.586	19547.04	16.15
512.159	19525.17	8.025
512.732	19503.35	28.63
513.306	19481.57	20.33
513.879	19459.85	16.04
514.452	19438.17	6.893
515.025	19416.54	11.03
515.598	19394.96	-4.16
516.171	19373.43	14.12
516.744	19351.94	-0.7045
517.317	19330.50	7.169
517.890	19309.11	4.152
518.463	19287.77	-16.83
519.036	19266.47	21.21
519.609	19245.23	8.838
520.182	19224.02	8.123
520.756	19202.87	15.58
521.329	19181.76	22.33
521.902	19160.70	20.57
522.475	19139.68	19.82
523.048	19118.71	16.96
523.621	19097.79	8.859
524.194	19076.91	10.23
524.767	19056.07	-0.6253
525.340	19035.29	8.342
525.913	19014.54	7.209
526.486	18993.85	26.82
527.059	18973.19	14.51
527.632	18952.59	7.022
528.206	18932.02	20.57
528.779	18911.51	7.167
529.352	18891.03	15.85
529.925	18870.60	35.39
530.498	18850.22	43
531.071	18829.88	32.35
531.644	18809.58	10.37
532.217	18789.33	11.48
532.790	18769.12	20.12
533.363	18748.95	31.48
533.936	18728.83	31.52
534.509	18708.75	19.63
535.082	18688.71	26.59
535.655	18668.72	19.66
536.229	18648.76	20.46
536.802	18628.85	38.37
537.375	18608.99	41.24
537.948	18589.16	25.36
538.521	18569.38	15.55
539.094	18549.64	25.03
539.667	18529.94	32.06
540.240	18510.29	30.06
540.813	18490.67	26.02
541.386	18471.10	41.95
541.959	18451.57	15.87
542.532	18432.08	26.39
543.105	18412.63	33.81
543.679	18393.22	38.91
544.252	18373.85	28.29
544.825	18354.53	37.7
545.398	18335.24	50.43
545.971	18316.00	21.58
546.544	18296.79	2.872
547.117	18277.63	18.06
547.690	18258.50	52.02
548.263	18239.42	43.68
548.836	18220.37	41.76
549.409	18201.37	20.61
549.982	18182.40	14.56
550.555	18163.47	25.81
551.129	18144.59	15.42
551.702	18125.74	25.56
552.275	18106.93	5.921
552.848	18088.16	6.491
553.421	18069.43	26.11
553.994	18050.74	23.9
554.567	18032.09	19.59
555.140	18013.47	20.96
555.713	17994.90	23.33
556.286	17976.36	14.55
556.859	17957.86	5.587
557.432	17939.40	37.84
558.005	17920.97	22.17
558.579	17902.59	19.89
559.152	17884.24	17.85
559.725	17865.93	3.85
560.298	17847.65	3.698
560.871	17829.42	3.937
561.444	17811.22	7.31
562.017	17793.06	16.36
562.590	17774.93	15.3
563.163	17756.84	-3.019
563.736	17738.79	15.47
564.309	17720.78	17.2
564.882	17702.80	3.699
565.455	17684.86	14.04
566.029	17666.95	14.79
566.602	17649.09	8.167
567.175	17631.25	1.339
567.748	17613.46	1.986
568.321	17595.70	-3.62
568.894	17577.97	2.977
569.467	17560.28	5.161
570.040	17542.63	16.25
570.613	17525.01	20.57
571.186	17507.43	14.26
571.759	17489.88	8.645
572.332	17472.37	10.6
572.905	17454.89	22.97
573.478	17437.45	10.09
574.052	17420.04	8.89
574.625	17402.66	14.43
575.198	17385.33	7.103
575.771	17368.02	14.43
576.344	17350.75	12.22
576.917	17333.52	23.03
577.490	17316.32	38.22
578.063	17299.15	34.59
578.636	17282.02	18.79
579.209	17264.92	12.27
579.782	17247.85	29.06
580.355	17230.82	4.715
580.928	17213.82	13.51
581.502	17196.86	6.842
582.075	17179.93	2.729
582.648	17163.03	17.5
583.221	17146.17	4.924
583.794	17129.33	4.702
584.367	17112.54	3.094
584.940	17095.77	16.57
585.513	17079.04	34.09
586.086	17062.34	2.992
586.659	17045.67	-34.71
587.232	17029.04	17.22
587.805	17012.43	15.18
588.378	16995.86	14.76
588.952	16979.33	22.26
589.525	16962.82	-10.51
590.098	16946.35	9.137
590.671	16929.91	20.01
591.244	16913.50	12.93
591.817	16897.12	-15.63
592.390	16880.77	38.08
592.963	16864.46	18.57
593.536	16848.17	-0.633
594.109	16831.92	22.93
594.682	16815.70	4.655
595.255	16799.51	44.37
595.828	16783.35	-30.05
596.402	16767.23	9.88
596.975	16751.13	0.14
597.548	16735.07	5.389
598.121	16719.03	4.104
598.694	16703.03	1.626
599.267	16687.06	-6.331
599.840	16671.11	0.03776
600.413	16655.20	9.295
600.986	16639.32	13.39
601.559	16623.47	-3.241
602.132	16607.65	10.1
602.705	16591.86	29.17
603.278	16576.09	-7.358
603.851	16560.36	-21.88
604.425	16544.66	17.9
604.998	16528.99	-5.763
605.571	16513.35	11.57
606.144	16497.74	-4.676
606.717	16482.15	-7.904
607.290	16466.60	7.416
607.863	16451.07	6.385
608.436	16435.58	-8.32
609.009	16420.11	-16.24
609.582	16404.68	-20.81
610.155	16389.27	-7.643
610.728	16373.89	3.532
611.301	16358.54	-19.98
611.875	16343.22	-2.787
612.448	16327.93	-6.394
613.021	16312.66	26.9
613.594	16297.43	12.54
614.167	16282.22	-6.613
614.740	16267.04	-4.667
615.313	16251.89	5.703
615.886	16236.77	1.235
616.459	16221.67	-6.924
617.032	16206.61	4.765
617.605	16191.57	17.93
618.178	16176.56	-1.027
618.751	16161.58	0.1438
619.325	16146.62	16.78
619.898	16131.70	21.88
620.471	16116.80	3.956
621.044	16101.92	1.43
621.617	16087.08	13.08
622.190	16072.26	2.936
622.763	16057.47	-14.9
623.336	16042.71	-13.52
623.909	16027.97	-35.3
624.482	16013.27	-22.58
625.055	15998.58	8.472
625.628	15983.93	10.33
626.201	15969.30	4.651
626.775	15954.70	19.54
627.348	15940.13	9.707
627.921	15925.58	14.85
628.494	15911.06	9.078
629.067	15896.56	3.969
629.640	15882.09	11.65
630.213	15867.65	25.74
630.786	15853.24	21.78
631.359	15838.85	15.25
631.932	15824.48	8.531
632.505	15810.14	3.433
633.078	15795.83	-3.085
633.651	15781.55	2.341
634.225	15767.29	17.32
634.798	15753.05	16.53
635.371	15738.84	21.38
635.944	15724.66	23.68
636.517	15710.50	14.03
637.090	15696.37	9.85
637.663	15682.27	12.97
638.236	15668.18	29.89
638.809	15654.13	35.31
639.382	15640.10	25.35
639.955	15626.09	29.32
640.528	15612.11	31.58
641.101	15598.16	23.37
641.674	15584.23	12.15
642.248	15570.32	3.508
642.821	15556.44	4.604
643.394	15542.58	13.29
643.967	15528.75	29.68
644.540	15514.94	17.04
645.113	15501.16	5.008
645.686	15487.40	11.17
646.259	15473.67	3.403
646.832	15459.96	10.33
647.405	15446.28	13.27
647.978	15432.62	3.909
648.551	15418.98	3.97
649.124	15405.37	4.716
649.698	15391.78	5.087
650.271	15378.21	9.92
650.844	15364.67	7.134
651.417	15351.16	-4.135
651.990	15337.66	-6.426
652.563	15324.19	5.295
653.136	15310.75	6.335
653.709	15297.32	16.13
654.282	15283.93	16.61
654.855	15270.55	-1.812
655.428	15257.20	8.535
656.001	15243.87	33.96
656.574	15230.57	23.86
657.148	15217.28	-3.322
657.721	15204.02	5.507
658.294	15190.79	1.174
658.867	15177.58	-8.186
659.440	15164.39	-2.44
660.013	15151.22	8.33
660.586	15138.07	19.09
661.159	15124.95	-1.391
661.732	15111.85	-9.757
662.305	15098.78	-11.42
662.878	15085.73	3.87
663.451	15072.69	6.722
664.024	15059.69	-8.126
664.598	15046.70	-0.6724
665.171	15033.74	11.76
665.744	15020.80	7.818
666.317	15007.88	-9.703
666.890	14994.98	-14
667.463	14982.11	1.151
668.036	14969.25	0.08366
668.609	14956.42	0.1048
669.182	14943.62	-8.311
669.755	14930.83	-10.2
670.328	14918.06	1.561
670.901	14905.32	11.05
671.474	14892.60	7.388
672.048	14879.90	9.612
672.621	14867.22	17.76
673.194	14854.57	11.52
673.767	14841.93	0.4081
674.340	14829.32	7.267
674.913	14816.73	15.48
675.486	14804.16	1.268
676.059	14791.61	-0.5224
676.632	14779.08	-0.1064
677.205	14766.57	-3.247
677.778	14754.09	-4.108
678.351	14741.62	5.677
678.924	14729.18	8.288
679.497	14716.76	-1.132
680.071	14704.36	-8.256
680.644	14691.98	0.3423
681.217	14679.62	9.644
681.790	14667.28	6.386
682.363	14654.96	-2.647
682.936	14642.66	-14.78
683.509	14630.38	-6.342
684.082	14618.13	-13.27
684.655	14605.89	6.478
685.228	14593.68	-1.728
685.801	14581.48	-9.302
686.374	14569.31	-13.73
686.947	14557.15	-1.2
687.521	14545.02	1.506
688.094	14532.91	-6.783
688.667	14520.81	2.406
689.240	14508.74	-17.58
689.813	14496.69	-7.973
690.386	14484.65	-1.323
690.959	14472.64	-2.825
691.532	14460.65	0.1789
692.105	14448.67	-11.24
692.678	14436.72	-1.841
693.251	14424.78	10.46
693.824	14412.87	-8.506
694.397	14400.97	-2.928
694.971	14389.10	-7.264
695.544	14377.24	-6.935
696.117	14365.41	-14.06
696.690	14353.59	-21.68
697.263	14341.79	-6.699
697.836	14330.02	1.273
698.409	14318.26	-1.437
698.982	14306.52	-3.49
699.555	14294.80	8.709
700.128	14283.10	-11.55
700.701	14271.42	-18.86
701.274	14259.75	-12.26
701.847	14248.11	-1.051
702.421	14236.49	9.604
702.994	14224.88	3.564
703.567	14213.29	-0.8551
704.140	14201.73	11.77
704.713	14190.18	20.6
705.286	14178.65	13
705.859	14167.14	11.18
706.432	14155.64	4.851
707.005	14144.17	-1.808
707.578	14132.71	7.691
708.151	14121.28	12.78
708.724	14109.86	1.161
709.297	14098.46	0.07084
709.870	14087.08	5.675
710.444	14075.71	3.108
711.017	14064.37	0.8628
711.590	14053.04	2.325
712.163	14041.73	0.7549
712.736	14030.44	2.244
713.309	14019.17	-10.32
713.882	14007.92	-22.6
714.455	13996.68	-12.1
715.028	13985.46	-2.466
715.601	13974.26	-11.26
716.174	13963.08	-0.7474
716.747	13951.92	0.2149
717.320	13940.77	-0.9861
717.894	13929.64	-2.208
718.467	13918.53	-22.93
719.040	13907.44	-12
719.613	13896.36	7.974
720.186	13885.30	7.592
720.759	13874.26	17.57
721.332	13863.24	-4.404
721.905	13852.24	-4.913
722.478	13841.25	5.635
723.051	13830.28	-0.7194
723.624	13819.33	-12.67
724.197	13808.39	-14.29
724.770	13797.47	-20.64
725.344	13786.57	-28.83
725.917	13775.69	-24.32
726.490	13764.82	-14.84
727.063	13753.97	-8.939
727.636	13743.14	-20.25
728.209	13732.32	-20.14
728.782	13721.52	-4.712
729.355	13710.74	3.858
729.928	13699.98	-9.31
730.501	13689.23	-10.57
731.074	13678.50	-20
731.647	13667.79	-4.762
732.220	13657.09	-22.04
732.794	13646.41	-17.86
733.367	13635.75	-12.77
733.940	13625.10	-6.277
734.513	13614.47	2.488
735.086	13603.85	9.199
735.659	13593.26	-9.18
736.232	13582.68	-2.09
736.805	13572.11	-5.677
737.378	13561.56	-6.881
737.951	13551.03	-15.99
738.524	13540.52	-0.3575
739.097	13530.02	6.019
739.670	13519.53	-6.498
740.244	13509.07	-29.48
740.817	13498.62	-23.63
741.390	13488.18	-17.67
741.963	13477.77	-25.63
742.536	13467.36	-13.2
743.109	13456.98	12.01
743.682	13446.61	-8.077
744.255	13436.25	16.73
744.828	13425.92	3.132
745.401	13415.59	-4.666
745.974	13405.29	-4.489
746.547	13395.00	2.882
747.120	13384.72	-8.331
747.693	13374.46	16.91
748.267	13364.22	-9.665
748.840	13353.99	-16.48
749.413	13343.78	2.615
749.986	13333.59	17.86
750.559	13323.41	-6.372
751.132	13313.24	8.736
751.705	13303.09	10.34
752.278	13292.96	3.273
752.851	13282.84	-16.96
753.424	13272.73	-26.88
753.997	13262.65	-0.7724
754.570	13252.57	3.963
755.143	13242.52	-1.176
755.717	13232.47	-9.857
756.290	13222.45	4.203
756.863	13212.44	-27.95
757.436	13202.44	-22.43
758.009	13192.46	-17.04
758.582	13182.49	0.7519
759.155	13172.54	5.352
759.728	13162.60	-0.1463
760.301	13152.68	-15.31
760.874	13142.78	-3.006
761.447	13132.89	0.4652
762.020	13123.01	0.9009
762.593	13113.15	-29.59
763.167	13103.30	-24.18
763.740	13093.47	-11.09
764.313	13083.65	-8.456
764.886	13073.85	-22.51
765.459	13064.06	-12.18
766.032	13054.29	-0.8055
766.605	13044.53	0.8302
767.178	13034.78	-0.4929
767.751	13025.05	-7.978
768.324	13015.34	-5.949
768.897	13005.64	-4.438
769.470	12995.95	-12.89
770.043	12986.28	-23.27
770.617	12976.62	-20.75
771.190	12966.98	-6.669
771.763	12957.35	-13.28
772.336	12947.74	-21.09
772.909	12938.14	-27.28
773.482	12928.55	-27.14
774.055	12918.98	-14.49
774.628	12909.42	-10.31
775.201	12899.88	-21.53
775.774	12890.35	-19.27
776.347	12880.83	-8.227
776.920	12871.33	-9.398
777.493	12861.85	-6.209
778.066	12852.37	-4.886
778.640	12842.91	-0.9868
779.213	12833.47	0.9025
779.786	12824.04	-9.043
780.359	12814.62	-10.05
780.932	12805.21	-7.989
781.505	12795.82	-8.992
782.078	12786.45	3.424
782.651	12777.09	-7.673
783.224	12767.74	-11.56
783.797	12758.40	19.42
784.370	12749.08	10.15
784.943	12739.77	-9.072
785.516	12730.48	-25.84
786.090	12721.20	-10.86
786.663	12711.93	-2.305
787.236	12702.68	-8.977
787.809	12693.44	10.99
788.382	12684.21	1.44
788.955	12675.00	6.025
789.528	12665.80	-11.62
790.101	12656.61	-21.73
790.674	12647.43	-4.995
791.247	12638.27	-25.58
791.820	12629.13	24.41
792.393	12619.99	-3.514
792.966	12610.87	-1.557
793.540	12601.77	-13.03
794.113	12592.67	-3.347
794.686	12583.59	-3.263
795.259	12574.52	-17.36
795.832	12565.47	1.956
796.405	12556.43	-0.3654
796.978	12547.40	-0.1678
797.551	12538.38	-8.726
798.124	12529.38	-3.163
798.697	12520.39	5.906
799.270	12511.41	-6.732
799.843	12502.45	-22.14
800.416	12493.50	2.826
800.990	12484.56	-2.967
801.563	12475.63	1.061
802.136	12466.72	7.019
802.709	12457.82	10.71
803.282	12448.93	11.84
803.855	12440.06	17.38
804.428	12431.19	2.72
805.001	12422.34	8.32
805.574	12413.51	20.44
806.147	12404.68	4.431
806.720	12395.87	-5.749
807.293	12387.07	12.74
807.866	12378.28	7.509
808.440	12369.51	11.66
809.013	12360.75	14.73
809.586	12352.00	10.65
810.159	12343.26	4.337
810.732	12334.54	-2.435
811.305	12325.82	11.8
811.878	12317.12	17.3
812.451	12308.43	13.44
813.024	12299.76	11.09
813.597	12291.09	12.69
814.170	12282.44	17.93
814.743	12273.80	11.03
815.316	12265.18	11.04
815.889	12256.56	21.92
816.463	12247.96	16.65
817.036	12239.37	10.03
817.609	12230.79	12.34
818.182	12222.22	13.54
818.755	12213.67	-4.848
819.328	12205.13	8.302
819.901	12196.59	32.66
820.474	12188.08	19.02
821.047	12179.57	11.42
821.620	12171.07	25.85
822.193	12162.59	10.21
822.766	12154.12	23.41
823.339	12145.66	25.5
823.913	12137.21	17.72
824.486	12128.77	8.588
825.059	12120.35	16.81
825.632	12111.94	38.06
826.205	12103.54	-9.687
826.778	12095.15	25.14
827.351	12086.77	18.81
827.924	12078.40	17.07
828.497	12070.05	21.66
829.070	12061.70	-7.334
829.643	12053.37	18.74
830.216	12045.05	11.19
830.789	12036.74	11.08
831.363	12028.45	4.722
831.936	12020.16	-13.69
832.509	12011.89	26.81
833.082	12003.62	14.94
833.655	11995.37	4.409
834.228	11987.13	0.9121
834.801	11978.90	5.15
835.374	11970.69	1.277
835.947	11962.48	-9.44
836.520	11954.28	-2.726
837.093	11946.10	3.382
837.666	11937.93	18.46
838.239	11929.77	18.6
838.813	11921.62	11.33
839.386	11913.48	-4.587
839.959	11905.35	-0.9352
840.532	11897.23	7.725
841.105	11889.12	-10.91
841.678	11881.03	-21.95
842.251	11872.95	-6.646
842.824	11864.87	-5.974
843.397	11856.81	-14.22
843.970	11848.76	2.885
844.543	11840.72	11.27
845.116	11832.69	6.876
845.689	11824.67	-13.48
846.262	11816.66	-25.03
846.836	11808.67	-6.543
847.409	11800.68	0.1291
847.982	11792.71	-18.79
848.555	11784.74	-22.01
849.128	11776.79	7.879
849.701	11768.85	12.45
850.274	11760.91	-11.24
850.847	11752.99	-5.545
851.420	11745.08	22.23
851.993	11737.18	11.17
852.566	11729.29	17.34
853.139	11721.41	-6.601
853.712	11713.55	6.97
854.286	11705.69	11.73
854.859	11697.84	-19.01
855.432	11690.00	11.29
856.005	11682.18	12.92
856.578	11674.36	14.89
857.151	11666.56	-4.383
857.724	11658.76	3.514
858.297	11650.98	0.7727
858.870	11643.20	16.99
859.443	11635.44	0.4459
860.016	11627.69	6.399
860.589	11619.94	0.06872
861.162	11612.21	7.171
861.736	11604.49	3.945
862.309	11596.78	12.94
862.882	11589.07	11.31
863.455	11581.38	13.01
864.028	11573.70	11.45
864.601	11566.03	1.723
865.174	11558.37	5.276
865.747	11550.72	12.66
866.320	11543.08	17.87
866.893	11535.45	19.12
867.466	11527.83	11.1
868.039	11520.21	-3.055
868.612	11512.61	-4.612
869.186	11505.02	13.38
869.759	11497.44	-1.413
870.332	11489.87	4.43
870.905	11482.31	5.136
871.478	11474.76	-3.718
872.051	11467.22	23.26
872.624	11459.69	5.129
873.197	11452.17	-5.698
873.770	11444.66	11.32
874.343	11437.16	-9.721
874.916	11429.67	8.407
875.489	11422.18	-7.593
876.062	11414.71	-5.626
876.636	11407.25	21.73
877.209	11399.80	-0.3081
877.782	11392.35	12.36
878.355	11384.92	11.03
878.928	11377.50	14.96
879.501	11370.09	-0.1309
880.074	11362.68	10.5
880.647	11355.29	10.79
881.220	11347.90	7.284
881.793	11340.53	-2.984
882.366	11333.16	5.061
882.939	11325.81	-4.26
883.512	11318.46	15.56
884.085	11311.12	17.01
884.659	11303.80	2.291
885.232	11296.48	6.97
885.805	11289.17	8.099
886.378	11281.87	-7.682
886.951	11274.58	4.709
887.524	11267.30	2.779
888.097	11260.03	-7.216
888.670	11252.77	1.03
889.243	11245.52	4.315
889.816	11238.28	-9.602
890.389	11231.04	9.263
890.962	11223.82	7.29
891.535	11216.60	12.34
892.109	11209.40	-9.914
892.682	11202.20	0.8271
893.255	11195.02	5.747
893.828	11187.84	0.5955
894.401	11180.67	-8.605
894.974	11173.51	16.97
895.547	11166.36	-1.431
896.120	11159.22	-0.4217
896.693	11152.09	4.384
897.266	11144.96	12.92
897.839	11137.85	-6.31
898.412	11130.75	10.6
898.985	11123.65	-0.1928
899.559	11116.56	13.28
900.132	11109.49	5.51
900.705	11102.42	-6.965
901.278	11095.36	-15.74
901.851	11088.31	1.272
902.424	11081.27	15.07
902.997	11074.23	6.779
903.570	11067.21	-2.922
904.143	11060.20	-1.354
904.716	11053.19	2.322
905.289	11046.19	4.514
905.862	11039.20	-9.467
906.435	11032.23	-4.801
907.009	11025.25	-9.36
907.582	11018.29	-15.83
908.155	11011.34	-15.35
908.728	11004.40	-11.74
909.301	10997.46	6.373
909.874	10990.53	17.27
910.447	10983.62	5.789
911.020	10976.71	5.433
911.593	10969.81	22.5
912.166	10962.91	-7.677
912.739	10956.03	8.656
913.312	10949.16	7.888
913.885	10942.29	0.7298
914.458	10935.43	-9.559
915.032	10928.58	19.46
915.605	10921.74	-1.691
916.178	10914.91	-9.382
916.751	10908.09	-5.316
917.324	10901.28	2.345
917.897	10894.47	18.98
918.470	10887.67	-4.455
919.043	10880.88	2.564
919.616	10874.10	3.003
920.189	10867.33	12.8
920.762	10860.57	23.54
921.335	10853.81	27.81
921.908	10847.06	16.49
922.482	10840.33	5.03
923.055	10833.59	19.79
923.628	10826.87	6.275
924.201	10820.16	13.09
924.774	10813.45	23.87
925.347	10806.76	18.06
925.920	10800.07	-22.75
926.493	10793.39	-5.65
927.066	10786.72	3.433
927.639	10780.05	14.45
928.212	10773.40	4.335
928.785	10766.75	24.35
929.358	10760.11	12.77
929.932	10753.48	2.664
930.505	10746.86	25.01
931.078	10740.24	-1.12
931.651	10733.64	-4.32
932.224	10727.04	16.18
932.797	10720.45	0.9225
933.370	10713.86	-12.41
933.943	10707.29	12.09
934.516	10700.72	11.99
935.089	10694.17	-2.042
935.662	10687.62	-0.2116
936.235	10681.07	-1.389
936.808	10674.54	11.06
937.382	10668.01	2.974
937.955	10661.50	4.825
938.528	10654.99	6.917
939.101	10648.48	26.69
939.674	10641.99	20.15
940.247	10635.50	20.23
940.820	10629.03	2.987
941.393	10622.56	9.189
941.966	10616.09	-14.47
942.539	10609.64	10.9
943.112	10603.19	-2.057
943.685	10596.75	7.24
944.258	10590.32	-2.752
944.832	10583.90	36.96
945.405	10577.48	6.501
945.978	10571.07	9.052
946.551	10564.67	7.922
947.124	10558.28	6.089
947.697	10551.90	18.55
948.270	10545.52	2.259
948.843	10539.15	3.286
949.416	10532.79	2.565
949.989	10526.44	-0.06167
950.562	10520.09	1.761
951.135	10513.75	2.201
951.708	10507.42	-9.376
952.281	10501.10	-9.83
952.855	10494.78	-15.55
953.428	10488.47	-1.964
954.001	10482.17	-2.904
954.574	10475.88	-6.037
955.147	10469.59	3.706
955.720	10463.32	6.429
956.293	10457.05	14.8
956.866	10450.78	0.2474
957.439	10444.53	-11.17
958.012	10438.28	7.014
958.585	10432.04	26.95
959.158	10425.81	-26.72
959.731	10419.58	-12.39
960.305	10413.36	30.67
960.878	10407.15	17.09
961.451	10400.95	-7.305
962.024	10394.75	-9.049
962.597	10388.57	17.25
963.170	10382.38	5.851
963.743	10376.21	3.038
964.316	10370.04	7.214
964.889	10363.88	1.475
965.462	10357.73	11.4
966.035	10351.59	14.51
966.608	10345.45	9.703
967.181	10339.32	6.074
967.755	10333.20	6.992
968.328	10327.08	12.86
968.901	10320.98	20.07
969.474	10314.87	-9.58
970.047	10308.78	-2.655
970.620	10302.69	3.236
971.193	10296.61	-7.24
971.766	10290.54	-5.083
972.339	10284.48	-6.483
972.912	10278.42	11.31
973.485	10272.37	-16.03
974.058	10266.33	10.76
974.631	10260.29	-6.946
975.205	10254.26	23.06
975.778	10248.24	12.24
976.351	10242.22	8.589
976.924	10236.21	1.917
977.497	10230.21	11.71
978.070	10224.22	22.44
978.643	10218.23	8.939
979.216	10212.25	5.118
979.789	10206.28	11
980.362	10200.31	12.85
980.935	10194.35	13.64
981.508	10188.40	21.29
982.081	10182.46	16.36
982.654	10176.52	8.064
983.228	10170.59	-0.5894
983.801	10164.66	14.16
984.374	10158.74	15.73
984.947	10152.83	9.139
985.520	10146.93	-2.651
986.093	10141.03	15.16
986.666	10135.14	6.275
987.239	10129.26	27.14
987.812	10123.38	5.97
988.385	10117.51	29.86
988.958	10111.65	15.03
989.531	10105.79	28.1
990.104	10099.94	20.76
990.678	10094.10	32.6
991.251	10088.27	41.08
991.824	10082.44	30.38
992.397	10076.61	13.56
992.970	10070.80	-2.384
993.543	10064.99	4.195
994.116	10059.19	32.5
994.689	10053.39	35.17
995.262	10047.60	22.95
995.835	10041.82	25.41
996.408	10036.05	37.4
996.981	10030.28	24.88
997.554	10024.52	34.05
998.128	10018.76	40.21
998.701	10013.01	5.742
999.274	10007.27	33.25
999.847	10001.53	42.46
1000.420	9995.80	17.55
1000.993	9990.08	25.62
1001.566	9984.36	32.62
1002.139	9978.65	41.77
1002.712	9972.95	42.27
1003.285	9967.26	52.08
1003.858	9961.57	44.88
1004.431	9955.88	31.35
1005.004	9950.20	29.1
1005.578	9944.53	21.88
1006.151	9938.87	27.54
1006.724	9933.21	17.45
1007.297	9927.56	27.54
1007.870	9921.92	22.58
1008.443	9916.28	18.25
1009.016	9910.65	12.07
1009.589	9905.02	18.45
1010.162	9899.40	32.41
1010.735	9893.79	22.06
1011.308	9888.18	40.52
1011.881	9882.58	0.2893
1012.454	9876.99	25.38
1013.028	9871.40	31.48
1013.601	9865.82	9.587
1014.174	9860.24	15.01
1014.747	9854.68	20.05
1015.320	9849.11	35.57
1015.893	9843.56	24.91
1016.466	9838.01	25.34
1017.039	9832.46	29.39
1017.612	9826.93	35.55
1018.185	9821.40	15.19
1018.758	9815.87	13.56
1019.331	9810.35	26.27
1019.904	9804.84	25.73
1020.477	9799.33	18.22
1021.051	9793.83	31.61
1021.624	9788.34	41.59
1022.197	9782.85	16.45
1022.770	9777.37	12.21
1023.343	9771.90	19.17
1023.916	9766.43	19.68
1024.489	9760.96	33.66
1025.062	9755.51	15.59
1025.635	9750.06	6.4
1026.208	9744.61	13.18
1026.781	9739.17	23.55
1027.354	9733.74	26.7
1027.927	9728.31	37.13
1028.501	9722.89	29.41
1029.074	9717.48	17.29
1029.647	9712.07	22.26
1030.220	9706.67	19.01
1030.793	9701.27	34.82
1031.366	9695.88	22.71
1031.939	9690.50	15.97
1032.512	9685.12	50.95
1033.085	9679.74	18.88
1033.658	9674.38	24.97
1034.231	9669.02	21.29
1034.804	9663.66	17.35
1035.377	9658.31	17.07
1035.951	9652.97	12.65
1036.524	9647.63	16.08
1037.097	9642.30	24.42
1037.670	9636.98	8.502
1038.243	9631.66	25.27
1038.816	9626.34	25.39
1039.389	9621.04	16.52
1039.962	9615.74	2.038
1040.535	9610.44	-1.879
1041.108	9605.15	29.19
1041.681	9599.87	8.344
1042.254	9594.59	18.24
1042.827	9589.31	3.513
1043.401	9584.05	18.98
1043.974	9578.79	10.61
1044.547	9573.53	-0.2144
1045.120	9568.28	7.092
1045.693	9563.04	10.24
1046.266	9557.80	12.57
1046.839	9552.57	-0.8742
1047.412	9547.34	-4.799
1047.985	9542.12	5.005
1048.558	9536.91	11.53
1049.131	9531.70	13.71
1049.704	9526.49	18.52
1050.277	9521.29	21.9
1050.850	9516.10	11.89
1051.424	9510.91	18.09
1051.997	9505.73	23.96
1052.570	9500.56	-0.2867
1053.143	9495.39	1.738
1053.716	9490.22	-12.17
1054.289	9485.07	27.66
1054.862	9479.91	3.705
1055.435	9474.77	8.123
1056.008	9469.62	27.29
1056.581	9464.49	25.14
1057.154	9459.36	17.48
1057.727	9454.23	16.5
1058.300	9449.11	10.51
1058.874	9444.00	7.507
1059.447	9438.89	11.17
1060.020	9433.79	21.67
1060.593	9428.69	25.69
1061.166	9423.60	13.46
1061.739	9418.51	16.65
1062.312	9413.43	24.17
1062.885	9408.35	20.55
1063.458	9403.28	6.492
1064.031	9398.22	19.47
1064.604	9393.16	51.98
1065.177	9388.11	17.54
1065.750	9383.06	24.44
1066.324	9378.02	17.77
1066.897	9372.98	17.22
1067.470	9367.95	30.21
1068.043	9362.92	21.8
1068.616	9357.90	18.48
1069.189	9352.88	21.19
1069.762	9347.87	18.06
1070.335	9342.87	8.416
1070.908	9337.87	16.72
1071.481	9332.87	11.71
1072.054	9327.89	6.516
1072.627	9322.90	17.12
1073.200	9317.92	26.19
1073.774	9312.95	42.37
1074.347	9307.98	33.75
1074.920	9303.02	30.54
1075.493	9298.06	26.48
1076.066	9293.11	24.66
1076.639	9288.17	38.81
1077.212	9283.22	28.07
1077.785	9278.29	25.08
1078.358	9273.36	31.69
1078.931	9268.43	22.94
1079.504	9263.51	24.9
1080.077	9258.60	28.93
1080.650	9253.69	29.15
1081.224	9248.78	52.15
1081.797	9243.88	17.42
1082.370	9238.99	6.452
1082.943	9234.10	20.28
1083.516	9229.21	38.59
1084.089	9224.34	25.71
1084.662	9219.46	20.91
1085.235	9214.59	20.03
1085.808	9209.73	25.89
1086.381	9204.87	29.01
1086.954	9200.02	38.8
1087.527	9195.17	31.5
1088.100	9190.33	37.83
1088.673	9185.49	31.19
1089.247	9180.66	29.53
1089.820	9175.83	0.02053
1090.393	9171.01	33.13
1090.966	9166.19	41.25
1091.539	9161.38	17.73
1092.112	9156.57	16.82
1092.685	9151.77	33.64
1093.258	9146.97	12.47
1093.831	9142.18	10.62
1094.404	9137.39	17.24
1094.977	9132.61	24.56
1095.550	9127.83	19.4
1096.123	9123.06	12.84
1096.697	9118.29	19.12
1097.270	9113.53	26.76
1097.843	9108.77	24.09
1098.416	9104.02	11.5
1098.989	9099.27	13.9
1099.562	9094.53	26
