Wavelength [nm]	Wavenumbers [1/cm]	cis_azobenzene_epsilons
250.000	40000.00	9235
250.100	39984.01	9195
250.200	39968.03	9155
250.300	39952.06	9114
250.400	39936.10	9073
250.500	39920.16	9033
250.600	39904.23	8989
250.700	39888.31	8947
250.800	39872.41	8904
250.900	39856.52	8861
251.000	39840.64	8815
251.100	39824.77	8771
251.200	39808.92	8724
251.300	39793.08	8679
251.400	39777.25	8632
251.500	39761.43	8586
251.600	39745.63	8540
251.700	39729.84	8493
251.800	39714.06	8447
251.900	39698.29	8397
252.000	39682.54	8351
252.100	39666.80	8303
252.200	39651.07	8255
252.300	39635.35	8204
252.400	39619.65	8155
252.500	39603.96	8103
252.600	39588.28	8055
252.700	39572.62	8003
252.800	39556.96	7955
252.900	39541.32	7902
253.000	39525.69	7854
253.100	39510.08	7803
253.200	39494.47	7752
253.300	39478.88	7701
253.400	39463.30	7649
253.500	39447.73	7601
253.600	39432.18	7548
253.700	39416.63	7498
253.800	39401.10	7444
253.900	39385.58	7395
254.000	39370.08	7341
254.100	39354.58	7291
254.200	39339.10	7238
254.300	39323.63	7189
254.400	39308.18	7139
254.500	39292.73	7088
254.600	39277.30	7038
254.700	39261.88	6987
254.800	39246.47	6939
254.900	39231.07	6886
255.000	39215.69	6837
255.100	39200.31	6784
255.200	39184.95	6736
255.300	39169.60	6684
255.400	39154.27	6637
255.500	39138.94	6586
255.600	39123.63	6539
255.700	39108.33	6492
255.800	39093.04	6443
255.900	39077.76	6396
256.000	39062.50	6347
256.100	39047.25	6303
256.200	39032.01	6254
256.300	39016.78	6210
256.400	39001.56	6161
256.500	38986.35	6117
256.600	38971.16	6071
256.700	38955.98	6027
256.800	38940.81	5981
256.900	38925.65	5940
257.000	38910.51	5897
257.100	38895.37	5855
257.200	38880.25	5813
257.300	38865.14	5771
257.400	38850.04	5732
257.500	38834.95	5690
257.600	38819.88	5652
257.700	38804.81	5610
257.800	38789.76	5572
257.900	38774.72	5533
258.000	38759.69	5496
258.100	38744.67	5458
258.200	38729.67	5423
258.300	38714.67	5388
258.400	38699.69	5353
258.500	38684.72	5320
258.600	38669.76	5284
258.700	38654.81	5252
258.800	38639.88	5218
258.900	38624.95	5187
259.000	38610.04	5154
259.100	38595.14	5124
259.200	38580.25	5092
259.300	38565.37	5065
259.400	38550.50	5034
259.500	38535.65	5007
259.600	38520.80	4979
259.700	38505.97	4953
259.800	38491.15	4927
259.900	38476.34	4901
260.000	38461.54	4877
260.100	38446.75	4852
260.200	38431.98	4830
260.300	38417.21	4805
260.400	38402.46	4783
260.500	38387.72	4760
260.600	38372.99	4739
260.700	38358.27	4718
260.800	38343.56	4699
260.900	38328.86	4680
261.000	38314.18	4661
261.100	38299.50	4643
261.200	38284.84	4626
261.300	38270.19	4609
261.400	38255.55	4592
261.500	38240.92	4577
261.600	38226.30	4561
261.700	38211.69	4546
261.800	38197.10	4532
261.900	38182.51	4519
262.000	38167.94	4506
262.100	38153.38	4493
262.200	38138.83	4481
262.300	38124.29	4470
262.400	38109.76	4459
262.500	38095.24	4450
262.600	38080.73	4439
262.700	38066.24	4430
262.800	38051.75	4422
262.900	38037.28	4413
263.000	38022.81	4405
263.100	38008.36	4397
263.200	37993.92	4390
263.300	37979.49	4383
263.400	37965.07	4378
263.500	37950.66	4371
263.600	37936.27	4367
263.700	37921.88	4362
263.800	37907.51	4357
263.900	37893.14	4354
264.000	37878.79	4349
264.100	37864.45	4346
264.200	37850.11	4344
264.300	37835.79	4341
264.400	37821.48	4339
264.500	37807.18	4337
264.600	37792.89	4335
264.700	37778.62	4334
264.800	37764.35	4333
264.900	37750.09	4333
265.000	37735.85	4333
265.100	37721.61	4333
265.200	37707.39	4333
265.300	37693.18	4334
265.400	37678.98	4335
265.500	37664.78	4336
265.600	37650.60	4337
265.700	37636.43	4339
265.800	37622.27	4342
265.900	37608.12	4343
266.000	37593.98	4345
266.100	37579.86	4348
266.200	37565.74	4351
266.300	37551.63	4354
266.400	37537.54	4358
266.500	37523.45	4361
266.600	37509.38	4365
266.700	37495.31	4368
266.800	37481.26	4373
266.900	37467.22	4376
267.000	37453.18	4381
267.100	37439.16	4385
267.200	37425.15	4389
267.300	37411.15	4394
267.400	37397.16	4400
267.500	37383.18	4405
267.600	37369.21	4410
267.700	37355.25	4415
267.800	37341.30	4420
267.900	37327.36	4425
268.000	37313.43	4431
268.100	37299.52	4437
268.200	37285.61	4442
268.300	37271.71	4448
268.400	37257.82	4454
268.500	37243.95	4461
268.600	37230.08	4467
268.700	37216.23	4474
268.800	37202.38	4479
268.900	37188.55	4486
269.000	37174.72	4492
269.100	37160.91	4499
269.200	37147.10	4505
269.300	37133.31	4511
269.400	37119.52	4517
269.500	37105.75	4524
269.600	37091.99	4531
269.700	37078.24	4537
269.800	37064.49	4545
269.900	37050.76	4550
270.000	37037.04	4558
270.100	37023.32	4565
270.200	37009.62	4571
270.300	36995.93	4578
270.400	36982.25	4585
270.500	36968.58	4591
270.600	36954.92	4597
270.700	36941.26	4604
270.800	36927.62	4611
270.900	36913.99	4617
271.000	36900.37	4624
271.100	36886.76	4631
271.200	36873.16	4637
271.300	36859.57	4644
271.400	36845.98	4651
271.500	36832.41	4657
271.600	36818.85	4663
271.700	36805.30	4670
271.800	36791.76	4675
271.900	36778.23	4682
272.000	36764.71	4688
272.100	36751.19	4694
272.200	36737.69	4701
272.300	36724.20	4706
272.400	36710.72	4713
272.500	36697.25	4719
272.600	36683.79	4725
272.700	36670.33	4730
272.800	36656.89	4737
272.900	36643.46	4742
273.000	36630.04	4748
273.100	36616.62	4754
273.200	36603.22	4759
273.300	36589.83	4765
273.400	36576.44	4771
273.500	36563.07	4776
273.600	36549.71	4782
273.700	36536.35	4787
273.800	36523.01	4792
273.900	36509.68	4797
274.000	36496.35	4803
274.100	36483.04	4808
274.200	36469.73	4812
274.300	36456.43	4817
274.400	36443.15	4823
274.500	36429.87	4827
274.600	36416.61	4832
274.700	36403.35	4837
274.800	36390.10	4842
274.900	36376.86	4846
275.000	36363.64	4851
275.100	36350.42	4855
275.200	36337.21	4859
275.300	36324.01	4863
275.400	36310.82	4868
275.500	36297.64	4872
275.600	36284.47	4875
275.700	36271.31	4880
275.800	36258.16	4883
275.900	36245.02	4887
276.000	36231.88	4891
276.100	36218.76	4894
276.200	36205.65	4899
276.300	36192.54	4902
276.400	36179.45	4906
276.500	36166.37	4909
276.600	36153.29	4912
276.700	36140.22	4915
276.800	36127.17	4918
276.900	36114.12	4921
277.000	36101.08	4924
277.100	36088.05	4926
277.200	36075.04	4929
277.300	36062.03	4932
277.400	36049.03	4935
277.500	36036.04	4937
277.600	36023.05	4940
277.700	36010.08	4943
277.800	35997.12	4945
277.900	35984.17	4947
278.000	35971.22	4950
278.100	35958.29	4952
278.200	35945.36	4953
278.300	35932.45	4956
278.400	35919.54	4957
278.500	35906.64	4959
278.600	35893.75	4961
278.700	35880.88	4963
278.800	35868.01	4964
278.900	35855.15	4966
279.000	35842.29	4967
279.100	35829.45	4968
279.200	35816.62	4969
279.300	35803.80	4970
279.400	35790.98	4970
279.500	35778.18	4972
279.600	35765.38	4973
279.700	35752.59	4975
279.800	35739.81	4975
279.900	35727.05	4976
280.000	35714.29	4976
280.100	35701.54	4978
280.200	35688.79	4978
280.300	35676.06	4977
280.400	35663.34	4977
280.500	35650.62	4978
280.600	35637.92	4978
280.700	35625.22	4979
280.800	35612.54	4978
280.900	35599.86	4977
281.000	35587.19	4977
281.100	35574.53	4978
281.200	35561.88	4977
281.300	35549.24	4977
281.400	35536.60	4976
281.500	35523.98	4975
281.600	35511.36	4975
281.700	35498.76	4974
281.800	35486.16	4972
281.900	35473.57	4973
282.000	35460.99	4971
282.100	35448.42	4970
282.200	35435.86	4968
282.300	35423.31	4967
282.400	35410.76	4966
282.500	35398.23	4965
282.600	35385.70	4963
282.700	35373.19	4962
282.800	35360.68	4960
282.900	35348.18	4958
283.000	35335.69	4956
283.100	35323.21	4955
283.200	35310.73	4953
283.300	35298.27	4950
283.400	35285.82	4949
283.500	35273.37	4946
283.600	35260.93	4944
283.700	35248.50	4942
283.800	35236.08	4939
283.900	35223.67	4936
284.000	35211.27	4934
284.100	35198.87	4930
284.200	35186.49	4929
284.300	35174.11	4926
284.400	35161.74	4922
284.500	35149.38	4919
284.600	35137.03	4917
284.700	35124.69	4913
284.800	35112.36	4910
284.900	35100.04	4907
285.000	35087.72	4904
285.100	35075.41	4900
285.200	35063.11	4896
285.300	35050.82	4892
285.400	35038.54	4889
285.500	35026.27	4885
285.600	35014.01	4881
285.700	35001.75	4877
285.800	34989.50	4873
285.900	34977.26	4869
286.000	34965.03	4866
286.100	34952.81	4861
286.200	34940.60	4857
286.300	34928.40	4852
286.400	34916.20	4848
286.500	34904.01	4843
286.600	34891.84	4838
286.700	34879.67	4834
286.800	34867.50	4830
286.900	34855.35	4826
287.000	34843.21	4820
287.100	34831.07	4814
287.200	34818.94	4810
287.300	34806.82	4804
287.400	34794.71	4801
287.500	34782.61	4794
287.600	34770.51	4789
287.700	34758.43	4784
287.800	34746.35	4777
287.900	34734.28	4772
288.000	34722.22	4766
288.100	34710.17	4761
288.200	34698.13	4755
288.300	34686.09	4749
288.400	34674.06	4743
288.500	34662.05	4737
288.600	34650.03	4730
288.700	34638.03	4725
288.800	34626.04	4718
288.900	34614.05	4713
289.000	34602.08	4706
289.100	34590.11	4699
289.200	34578.15	4693
289.300	34566.19	4686
289.400	34554.25	4679
289.500	34542.31	4673
289.600	34530.39	4666
289.700	34518.47	4659
289.800	34506.56	4653
289.900	34494.65	4644
290.000	34482.76	4638
290.100	34470.87	4631
290.200	34458.99	4624
290.300	34447.12	4617
290.400	34435.26	4609
290.500	34423.41	4602
290.600	34411.56	4595
290.700	34399.72	4587
290.800	34387.90	4580
290.900	34376.07	4571
291.000	34364.26	4564
291.100	34352.46	4555
291.200	34340.66	4548
291.300	34328.87	4540
291.400	34317.09	4532
291.500	34305.32	4524
291.600	34293.55	4516
291.700	34281.80	4508
291.800	34270.05	4500
291.900	34258.31	4490
292.000	34246.58	4483
292.100	34234.85	4473
292.200	34223.13	4465
292.300	34211.43	4456
292.400	34199.73	4448
292.500	34188.03	4438
292.600	34176.35	4431
292.700	34164.67	4421
292.800	34153.01	4413
292.900	34141.35	4404
293.000	34129.69	4394
293.100	34118.05	4386
293.200	34106.41	4377
293.300	34094.78	4367
293.400	34083.16	4357
293.500	34071.55	4348
293.600	34059.95	4338
293.700	34048.35	4330
293.800	34036.76	4320
293.900	34025.18	4309
294.000	34013.61	4300
294.100	34002.04	4290
294.200	33990.48	4280
294.300	33978.93	4271
294.400	33967.39	4262
294.500	33955.86	4252
294.600	33944.33	4242
294.700	33932.81	4231
294.800	33921.30	4222
294.900	33909.80	4211
295.000	33898.31	4202
295.100	33886.82	4191
295.200	33875.34	4180
295.300	33863.87	4169
295.400	33852.40	4160
295.500	33840.95	4150
295.600	33829.50	4138
295.700	33818.06	4129
295.800	33806.63	4117
295.900	33795.20	4108
296.000	33783.78	4096
296.100	33772.37	4086
296.200	33760.97	4075
296.300	33749.58	4065
296.400	33738.19	4053
296.500	33726.81	4042
296.600	33715.44	4032
296.700	33704.08	4021
296.800	33692.72	4009
296.900	33681.37	3998
297.000	33670.03	3986
297.100	33658.70	3976
297.200	33647.38	3965
297.300	33636.06	3955
297.400	33624.75	3943
297.500	33613.45	3931
297.600	33602.15	3920
297.700	33590.86	3908
297.800	33579.58	3896
297.900	33568.31	3884
298.000	33557.05	3873
298.100	33545.79	3862
298.200	33534.54	3850
298.300	33523.30	3839
298.400	33512.06	3826
298.500	33500.84	3816
298.600	33489.62	3803
298.700	33478.41	3792
298.800	33467.20	3779
298.900	33456.01	3768
299.000	33444.82	3756
299.100	33433.63	3744
299.200	33422.46	3731
299.300	33411.29	3720
299.400	33400.13	3709
299.500	33388.98	3695
299.600	33377.84	3684
299.700	33366.70	3671
299.800	33355.57	3659
299.900	33344.45	3647
300.000	33333.33	3635
300.100	33322.23	3623
300.200	33311.13	3610
300.300	33300.03	3598
300.400	33288.95	3585
300.500	33277.87	3574
300.600	33266.80	3560
300.700	33255.74	3548
300.800	33244.68	3537
300.900	33233.63	3525
301.000	33222.59	3512
301.100	33211.56	3500
301.200	33200.53	3487
301.300	33189.51	3475
301.400	33178.50	3462
301.500	33167.50	3449
301.600	33156.50	3436
301.700	33145.51	3424
301.800	33134.53	3411
301.900	33123.55	3399
302.000	33112.58	3385
302.100	33101.62	3373
302.200	33090.67	3361
302.300	33079.72	3349
302.400	33068.78	3336
302.500	33057.85	3324
302.600	33046.93	3311
302.700	33036.01	3298
302.800	33025.10	3285
302.900	33014.20	3273
303.000	33003.30	3260
303.100	32992.41	3247
303.200	32981.53	3234
303.300	32970.66	3222
303.400	32959.79	3210
303.500	32948.93	3197
303.600	32938.08	3183
303.700	32927.23	3171
303.800	32916.39	3158
303.900	32905.56	3147
304.000	32894.74	3133
304.100	32883.92	3120
304.200	32873.11	3108
304.300	32862.31	3095
304.400	32851.51	3082
304.500	32840.72	3069
304.600	32829.94	3056
304.700	32819.17	3044
304.800	32808.40	3031
304.900	32797.64	3018
305.000	32786.89	3005
305.100	32776.14	2992
305.200	32765.40	2981
305.300	32754.67	2968
305.400	32743.94	2955
305.500	32733.22	2940
305.600	32722.51	2928
305.700	32711.81	2915
305.800	32701.11	2902
305.900	32690.42	2890
306.000	32679.74	2876
306.100	32669.06	2864
306.200	32658.39	2852
306.300	32647.73	2838
306.400	32637.08	2826
306.500	32626.43	2814
306.600	32615.79	2800
306.700	32605.15	2788
306.800	32594.52	2775
306.900	32583.90	2763
307.000	32573.29	2749
307.100	32562.68	2737
307.200	32552.08	2724
307.300	32541.49	2711
307.400	32530.90	2699
307.500	32520.33	2686
307.600	32509.75	2675
307.700	32499.19	2662
307.800	32488.63	2648
307.900	32478.08	2636
308.000	32467.53	2624
308.100	32456.99	2612
308.200	32446.46	2598
308.300	32435.94	2585
308.400	32425.42	2572
308.500	32414.91	2560
308.600	32404.41	2547
308.700	32393.91	2535
308.800	32383.42	2523
308.900	32372.94	2509
309.000	32362.46	2497
309.100	32351.99	2486
309.200	32341.53	2472
309.300	32331.07	2460
309.400	32320.62	2447
309.500	32310.18	2437
309.600	32299.74	2423
309.700	32289.31	2411
309.800	32278.89	2398
309.900	32268.47	2387
310.000	32258.06	2373
310.100	32247.66	2361
310.200	32237.27	2349
310.300	32226.88	2338
310.400	32216.49	2325
310.500	32206.12	2313
310.600	32195.75	2301
310.700	32185.39	2289
310.800	32175.03	2277
310.900	32164.68	2264
311.000	32154.34	2252
311.100	32144.01	2239
311.200	32133.68	2227
311.300	32123.35	2216
311.400	32113.04	2203
311.500	32102.73	2191
311.600	32092.43	2179
311.700	32082.13	2168
311.800	32071.84	2156
311.900	32061.56	2146
312.000	32051.28	2133
312.100	32041.01	2122
312.200	32030.75	2108
312.300	32020.49	2098
312.400	32010.24	2085
312.500	32000.00	2073
312.600	31989.76	2062
312.700	31979.53	2050
312.800	31969.31	2039
312.900	31959.09	2028
313.000	31948.88	2016
313.100	31938.68	2004
313.200	31928.48	1994
313.300	31918.29	1982
313.400	31908.10	1971
313.500	31897.93	1959
313.600	31887.76	1947
313.700	31877.59	1935
313.800	31867.43	1924
313.900	31857.28	1913
314.000	31847.13	1901
314.100	31836.99	1890
314.200	31826.86	1879
314.300	31816.74	1868
314.400	31806.62	1857
314.500	31796.50	1846
314.600	31786.40	1835
314.700	31776.29	1824
314.800	31766.20	1812
314.900	31756.11	1802
315.000	31746.03	1790
315.100	31735.96	1779
315.200	31725.89	1769
315.300	31715.83	1758
315.400	31705.77	1747
315.500	31695.72	1736
315.600	31685.68	1725
315.700	31675.64	1715
315.800	31665.61	1705
315.900	31655.59	1694
316.000	31645.57	1682
316.100	31635.56	1671
316.200	31625.55	1661
316.300	31615.55	1651
316.400	31605.56	1640
316.500	31595.58	1630
316.600	31585.60	1620
316.700	31575.62	1610
316.800	31565.66	1599
316.900	31555.70	1588
317.000	31545.74	1579
317.100	31535.79	1569
317.200	31525.85	1559
317.300	31515.92	1549
317.400	31505.99	1538
317.500	31496.06	1528
317.600	31486.15	1517
317.700	31476.24	1507
317.800	31466.33	1496
317.900	31456.43	1487
318.000	31446.54	1477
318.100	31436.66	1466
318.200	31426.78	1457
318.300	31416.90	1448
318.400	31407.04	1439
318.500	31397.17	1429
318.600	31387.32	1419
318.700	31377.47	1410
318.800	31367.63	1400
318.900	31357.79	1390
319.000	31347.96	1382
319.100	31338.14	1371
319.200	31328.32	1362
319.300	31318.51	1352
319.400	31308.70	1342
319.500	31298.90	1332
319.600	31289.11	1324
319.700	31279.32	1314
319.800	31269.54	1305
319.900	31259.77	1296
320.000	31250.00	1287
320.100	31240.24	1278
320.200	31230.48	1268
320.300	31220.73	1260
320.400	31210.99	1249
320.500	31201.25	1241
320.600	31191.52	1234
320.700	31181.79	1223
320.800	31172.07	1215
320.900	31162.36	1205
321.000	31152.65	1197
321.100	31142.95	1188
321.200	31133.25	1180
321.300	31123.56	1170
321.400	31113.88	1162
321.500	31104.20	1152
321.600	31094.53	1145
321.700	31084.86	1136
321.800	31075.20	1127
321.900	31065.55	1118
322.000	31055.90	1110
322.100	31046.26	1103
322.200	31036.62	1092
322.300	31026.99	1087
322.400	31017.37	1078
322.500	31007.75	1069
322.600	30998.14	1060
322.700	30988.53	1054
322.800	30978.93	1044
322.900	30969.34	1036
323.000	30959.75	1028
323.100	30950.17	1020
323.200	30940.59	1013
323.300	30931.02	1005
323.400	30921.46	996.9
323.500	30911.90	989.1
323.600	30902.35	982.2
323.700	30892.80	973.7
323.800	30883.26	967
323.900	30873.73	958.5
324.000	30864.20	950.3
324.100	30854.67	941.7
324.200	30845.16	935.3
324.300	30835.65	926.7
324.400	30826.14	920.2
324.500	30816.64	912.9
324.600	30807.15	905.3
324.700	30797.66	898.5
324.800	30788.18	890.7
324.900	30778.70	883.7
325.000	30769.23	876.2
325.100	30759.77	868.9
325.200	30750.31	861.3
325.300	30740.85	854.1
325.400	30731.41	847.8
325.500	30721.97	840.9
325.600	30712.53	833
325.700	30703.10	825.5
325.800	30693.68	819.2
325.900	30684.26	812.6
326.000	30674.85	805.4
326.100	30665.44	797.8
326.200	30656.04	791.8
326.300	30646.64	786.2
326.400	30637.25	779.5
326.500	30627.87	771.4
326.600	30618.49	766.7
326.700	30609.12	757.2
326.800	30599.76	753.6
326.900	30590.39	746
327.000	30581.04	740.4
327.100	30571.69	733
327.200	30562.35	726
327.300	30553.01	719.8
327.400	30543.68	713
327.500	30534.35	707.6
327.600	30525.03	700.5
327.700	30515.72	695.8
327.800	30506.41	689.9
327.900	30497.10	682.8
328.000	30487.80	677.5
328.100	30478.51	670.8
328.200	30469.23	663.7
328.300	30459.95	658.7
328.400	30450.67	652.3
328.500	30441.40	646.2
328.600	30432.14	641.2
328.700	30422.88	634.6
328.800	30413.63	630.1
328.900	30404.38	622.5
329.000	30395.14	619
329.100	30385.90	611
329.200	30376.67	605.9
329.300	30367.45	600.7
329.400	30358.23	594.8
329.500	30349.01	588.7
329.600	30339.81	583.9
329.700	30330.60	577.2
329.800	30321.41	571.8
329.900	30312.22	567.7
330.000	30303.03	562.2
330.100	30293.85	557
330.200	30284.68	552
330.300	30275.51	546.7
330.400	30266.34	540.4
330.500	30257.19	536.5
330.600	30248.03	530.2
330.700	30238.89	525.4
330.800	30229.75	520.8
330.900	30220.61	515.9
331.000	30211.48	510.3
331.100	30202.36	505
331.200	30193.24	500.8
331.300	30184.12	496
331.400	30175.02	490.8
331.500	30165.91	484.7
331.600	30156.82	481.5
331.700	30147.72	476.4
331.800	30138.64	472.5
331.900	30129.56	466.4
332.000	30120.48	462.2
332.100	30111.41	457.9
332.200	30102.35	454.6
332.300	30093.29	448.2
332.400	30084.24	443.9
332.500	30075.19	439
332.600	30066.15	436.3
332.700	30057.11	430.7
332.800	30048.08	427
332.900	30039.05	421.9
333.000	30030.03	418.1
333.100	30021.01	415.6
333.200	30012.00	410.6
333.300	30003.00	406.4
333.400	29994.00	401.8
333.500	29985.01	398.9
333.600	29976.02	393.8
333.700	29967.04	389.6
333.800	29958.06	385.2
333.900	29949.09	382.5
334.000	29940.12	378.2
334.100	29931.16	374.1
334.200	29922.20	371.1
334.300	29913.25	367.2
334.400	29904.31	363.1
334.500	29895.37	358.8
334.600	29886.43	355.3
334.700	29877.50	352.3
334.800	29868.58	347.8
334.900	29859.66	344
335.000	29850.75	340.2
335.100	29841.84	335.3
335.200	29832.94	333.4
335.300	29824.04	329
335.400	29815.15	326.5
335.500	29806.26	321.9
335.600	29797.38	319.9
335.700	29788.50	315.2
335.800	29779.63	312.1
335.900	29770.77	309.5
336.000	29761.90	306.2
336.100	29753.05	303.9
336.200	29744.20	299.2
336.300	29735.36	296.8
336.400	29726.52	293.2
336.500	29717.68	290.6
336.600	29708.85	286.9
336.700	29700.03	283.3
336.800	29691.21	280.7
336.900	29682.40	278.5
337.000	29673.59	275.7
337.100	29664.79	271.8
337.200	29655.99	269.1
337.300	29647.20	265.4
337.400	29638.41	262.8
337.500	29629.63	259.1
337.600	29620.85	256.9
337.700	29612.08	253.5
337.800	29603.32	251.1
337.900	29594.55	248.8
338.000	29585.80	245.1
338.100	29577.05	243.4
338.200	29568.30	240.4
338.300	29559.56	238.2
338.400	29550.83	235.3
338.500	29542.10	232.4
338.600	29533.37	229.2
338.700	29524.65	227.7
338.800	29515.94	225.6
338.900	29507.23	222
339.000	29498.53	218.7
339.100	29489.83	217.4
339.200	29481.13	214.7
339.300	29472.44	213.6
339.400	29463.76	211.4
339.500	29455.08	207.3
339.600	29446.41	205.5
339.700	29437.74	203.6
339.800	29429.08	201.8
339.900	29420.42	198.9
340.000	29411.76	196
340.100	29403.12	193.7
340.200	29394.47	193.4
340.300	29385.84	191.2
340.400	29377.20	188.4
340.500	29368.58	185.9
340.600	29359.95	183.1
340.700	29351.34	181.1
340.800	29342.72	180.3
340.900	29334.12	178.7
341.000	29325.51	175.5
341.100	29316.92	174.6
341.200	29308.32	172.3
341.300	29299.74	170.3
341.400	29291.15	168.3
341.500	29282.58	168.3
341.600	29274.00	164.8
341.700	29265.44	163.9
341.800	29256.88	160.7
341.900	29248.32	160.5
342.000	29239.77	158.1
342.100	29231.22	157.3
342.200	29222.68	156.1
342.300	29214.14	153
342.400	29205.61	153
342.500	29197.08	151.2
342.600	29188.56	149.7
342.700	29180.04	147.4
342.800	29171.53	146.5
342.900	29163.02	146
343.000	29154.52	143.8
343.100	29146.02	142.2
343.200	29137.53	142.2
343.300	29129.04	138.8
343.400	29120.56	139
343.500	29112.08	136.8
343.600	29103.61	134.8
343.700	29095.14	133.1
343.800	29086.68	132.7
343.900	29078.22	132.1
344.000	29069.77	130.8
344.100	29061.32	129
344.200	29052.88	126.5
344.300	29044.44	126.6
344.400	29036.00	123.7
344.500	29027.58	123
344.600	29019.15	122.5
344.700	29010.73	121.2
344.800	29002.32	121.5
344.900	28993.91	119.1
345.000	28985.51	118.8
345.100	28977.11	117.6
345.200	28968.71	116.9
345.300	28960.32	115.7
345.400	28951.94	113.8
345.500	28943.56	113.4
345.600	28935.19	112.5
345.700	28926.82	111.1
345.800	28918.45	110.2
345.900	28910.09	109.6
346.000	28901.73	108.9
346.100	28893.38	108.5
346.200	28885.04	106.8
346.300	28876.70	105.9
346.400	28868.36	103.8
346.500	28860.03	104.2
346.600	28851.70	103.3
346.700	28843.38	102.7
346.800	28835.06	102.6
346.900	28826.75	99.78
347.000	28818.44	100.9
347.100	28810.14	100.4
347.200	28801.84	99.72
347.300	28793.55	97.64
347.400	28785.26	98.42
347.500	28776.98	96.8
347.600	28768.70	95.52
347.700	28760.43	96.39
347.800	28752.16	94.82
347.900	28743.89	92.7
348.000	28735.63	93.32
348.100	28727.38	92.93
348.200	28719.13	91.99
348.300	28710.88	92.81
348.400	28702.64	91.01
348.500	28694.40	89.91
348.600	28686.17	90.67
348.700	28677.95	88.96
348.800	28669.72	89.99
348.900	28661.51	87.46
349.000	28653.30	88.67
349.100	28645.09	86.11
349.200	28636.88	86.31
349.300	28628.69	86.76
349.400	28620.49	84.89
349.500	28612.30	85.03
349.600	28604.12	86.14
349.700	28595.94	83.61
349.800	28587.76	84.26
349.900	28579.59	84.54
350.000	28571.43	82.14
350.100	28563.27	83.54
350.200	28555.11	82.25
350.300	28546.96	83.28
350.400	28538.81	81.12
350.500	28530.67	81.49
350.600	28522.53	80.61
350.700	28514.40	80.15
350.800	28506.27	81.05
350.900	28498.15	79.98
351.000	28490.03	79.64
351.100	28481.91	79.39
351.200	28473.80	78.86
351.300	28465.70	77.25
351.400	28457.60	78.19
351.500	28449.50	78.03
351.600	28441.41	78.3
351.700	28433.32	76.94
351.800	28425.24	77.99
351.900	28417.16	77
352.000	28409.09	77.26
352.100	28401.02	76.81
352.200	28392.96	76.25
352.300	28384.90	76.49
352.400	28376.84	75.6
352.500	28368.79	75.01
352.600	28360.75	75.73
352.700	28352.71	75.32
352.800	28344.67	74.52
352.900	28336.64	74.59
353.000	28328.61	73.84
353.100	28320.59	73.99
353.200	28312.57	73.76
353.300	28304.56	73.12
353.400	28296.55	73.09
353.500	28288.54	73.01
353.600	28280.54	73.38
353.700	28272.55	73.61
353.800	28264.56	71.97
353.900	28256.57	74.13
354.000	28248.59	72.25
354.100	28240.61	73.55
354.200	28232.64	74.19
354.300	28224.67	72.75
354.400	28216.70	72.54
354.500	28208.74	71.98
354.600	28200.79	73.66
354.700	28192.84	73.53
354.800	28184.89	73.54
354.900	28176.95	72.74
355.000	28169.01	71.54
355.100	28161.08	71.28
355.200	28153.15	73.38
355.300	28145.23	72.82
355.400	28137.31	72.46
355.500	28129.40	73.12
355.600	28121.48	72.38
355.700	28113.58	72.72
355.800	28105.68	72.72
355.900	28097.78	72.96
356.000	28089.89	72.22
356.100	28082.00	72.62
356.200	28074.12	72.96
356.300	28066.24	72.72
356.400	28058.36	74
356.500	28050.49	72.79
356.600	28042.62	73.05
356.700	28034.76	71.73
356.800	28026.91	73.22
356.900	28019.05	74.4
357.000	28011.20	71.88
357.100	28003.36	72.41
357.200	27995.52	72.91
357.300	27987.69	74.11
357.400	27979.85	71.68
357.500	27972.03	72.71
357.600	27964.21	72.93
357.700	27956.39	73.87
357.800	27948.57	74.72
357.900	27940.77	73.54
358.000	27932.96	73.12
358.100	27925.16	75.38
358.200	27917.36	75.59
358.300	27909.57	74.5
358.400	27901.79	76.4
358.500	27894.00	75.22
358.600	27886.22	74.71
358.700	27878.45	76.56
358.800	27870.68	76.94
358.900	27862.91	77.7
359.000	27855.15	76.34
359.100	27847.40	78.91
359.200	27839.64	77.39
359.300	27831.90	77.41
359.400	27824.15	76.95
359.500	27816.41	78.01
359.600	27808.68	76.25
359.700	27800.95	78.58
359.800	27793.22	76.72
359.900	27785.50	66.7
360.000	27777.78	66.94
360.100	27770.06	66.79
360.200	27762.35	67.67
360.300	27754.65	68.12
360.400	27746.95	68.56
360.500	27739.25	69.24
360.600	27731.56	69.58
360.700	27723.87	69.54
360.800	27716.19	69.96
360.900	27708.51	70.32
361.000	27700.83	70.57
361.100	27693.16	70.41
361.200	27685.49	70.84
361.300	27677.83	71.52
361.400	27670.17	71.95
361.500	27662.52	72.06
361.600	27654.87	72.85
361.700	27647.22	72.76
361.800	27639.58	72.92
361.900	27631.94	73.31
362.000	27624.31	74.29
362.100	27616.68	74.27
362.200	27609.06	74.41
362.300	27601.44	75.11
362.400	27593.82	75.31
362.500	27586.21	76.13
362.600	27578.60	76.38
362.700	27571.00	77.19
362.800	27563.40	77.59
362.900	27555.80	77.71
363.000	27548.21	78.25
363.100	27540.62	78.8
363.200	27533.04	78.82
363.300	27525.46	79.14
363.400	27517.89	79.57
363.500	27510.32	80.56
363.600	27502.75	82.02
363.700	27495.19	81.97
363.800	27487.63	81.7
363.900	27480.08	82.9
364.000	27472.53	82.79
364.100	27464.98	83.67
364.200	27457.44	84.28
364.300	27449.90	85.13
364.400	27442.37	85.52
364.500	27434.84	85.98
364.600	27427.32	86.22
364.700	27419.80	86.43
364.800	27412.28	87.15
364.900	27404.77	88.53
365.000	27397.26	88.82
365.100	27389.76	88.92
365.200	27382.26	89.95
365.300	27374.76	89.8
365.400	27367.27	90.65
365.500	27359.78	91.37
365.600	27352.30	92.12
365.700	27344.82	92.25
365.800	27337.34	92.63
365.900	27329.87	93.76
366.000	27322.40	94.25
366.100	27314.94	94.89
366.200	27307.48	95.65
366.300	27300.03	96.93
366.400	27292.58	96.28
366.500	27285.13	97.74
366.600	27277.69	98.05
366.700	27270.25	98.46
366.800	27262.81	99.68
366.900	27255.38	100.3
367.000	27247.96	100.7
367.100	27240.53	101.7
367.200	27233.12	102.3
367.300	27225.70	102.7
367.400	27218.29	103.8
367.500	27210.88	104.9
367.600	27203.48	105.6
367.700	27196.08	106.1
367.800	27188.69	107.2
367.900	27181.30	107.9
368.000	27173.91	108.4
368.100	27166.53	109.1
368.200	27159.15	110.1
368.300	27151.78	111
368.400	27144.41	111.2
368.500	27137.04	111.8
368.600	27129.68	113.2
368.700	27122.32	113.3
368.800	27114.97	114.8
368.900	27107.62	115
369.000	27100.27	115.8
369.100	27092.93	116.9
369.200	27085.59	117.2
369.300	27078.26	117.8
369.400	27070.93	118.5
369.500	27063.60	119.4
369.600	27056.28	121.1
369.700	27048.96	121.5
369.800	27041.64	122.3
369.900	27034.33	123.8
370.000	27027.03	124
370.100	27019.72	124.8
370.200	27012.43	125.8
370.300	27005.13	127
370.400	26997.84	127.3
370.500	26990.55	128
370.600	26983.27	129.5
370.700	26975.99	130.4
370.800	26968.72	131.9
370.900	26961.45	132.3
371.000	26954.18	133.6
371.100	26946.91	134.5
371.200	26939.66	135.3
371.300	26932.40	136.4
371.400	26925.15	136.4
371.500	26917.90	138.3
371.600	26910.66	140
371.700	26903.42	139.8
371.800	26896.18	140.9
371.900	26888.95	142.5
372.000	26881.72	143.2
372.100	26874.50	144.3
372.200	26867.28	144.9
372.300	26860.06	146
372.400	26852.85	146.7
372.500	26845.64	148.4
372.600	26838.43	149.5
372.700	26831.23	150
372.800	26824.03	151.5
372.900	26816.84	152.9
373.000	26809.65	154.4
373.100	26802.47	155
373.200	26795.28	155.9
373.300	26788.11	157.4
373.400	26780.93	158.5
373.500	26773.76	159.8
373.600	26766.60	160.9
373.700	26759.43	161.4
373.800	26752.27	163
373.900	26745.12	164.1
374.000	26737.97	165.5
374.100	26730.82	166.7
374.200	26723.68	167.7
374.300	26716.54	169.1
374.400	26709.40	170.1
374.500	26702.27	171.4
374.600	26695.14	172.3
374.700	26688.02	173.5
374.800	26680.90	174.8
374.900	26673.78	176.3
375.000	26666.67	177.5
375.100	26659.56	178
375.200	26652.45	180.1
375.300	26645.35	181.4
375.400	26638.25	183
375.500	26631.16	184.2
375.600	26624.07	185.4
375.700	26616.98	186
375.800	26609.90	188.1
375.900	26602.82	189.4
376.000	26595.74	190.4
376.100	26588.67	192.3
376.200	26581.61	193.3
376.300	26574.54	193.9
376.400	26567.48	195.9
376.500	26560.42	198.1
376.600	26553.37	198.7
376.700	26546.32	200
376.800	26539.28	201.4
376.900	26532.24	202.7
377.000	26525.20	204.3
377.100	26518.16	206.5
377.200	26511.13	207
377.300	26504.11	208.9
377.400	26497.09	210.7
377.500	26490.07	211.4
377.600	26483.05	213.1
377.700	26476.04	214.5
377.800	26469.03	216.4
377.900	26462.03	218.3
378.000	26455.03	219.9
378.100	26448.03	221.2
378.200	26441.04	222.2
378.300	26434.05	224.2
378.400	26427.06	225.5
378.500	26420.08	227
378.600	26413.10	228.7
378.700	26406.13	230.4
378.800	26399.16	232
378.900	26392.19	233.4
379.000	26385.22	235.1
379.100	26378.26	236.9
379.200	26371.31	238.5
379.300	26364.36	239.9
379.400	26357.41	241.1
379.500	26350.46	243
379.600	26343.52	245.3
379.700	26336.58	246.3
379.800	26329.65	248.2
379.900	26322.72	249.5
380.000	26315.79	251.6
380.100	26308.87	253.5
380.200	26301.95	255.4
380.300	26295.03	257.3
380.400	26288.12	258.5
380.500	26281.21	260.2
380.600	26274.30	262
380.700	26267.40	263.5
380.800	26260.50	265.5
380.900	26253.61	267.2
381.000	26246.72	269.4
381.100	26239.83	271.1
381.200	26232.95	273
381.300	26226.07	274.8
381.400	26219.19	276.3
381.500	26212.32	278.6
381.600	26205.45	280.6
381.700	26198.59	282.5
381.800	26191.72	284
381.900	26184.87	286.3
382.000	26178.01	287.6
382.100	26171.16	289.9
382.200	26164.31	292.2
382.300	26157.47	294.1
382.400	26150.63	295.5
382.500	26143.79	297.7
382.600	26136.96	299.6
382.700	26130.13	301.4
382.800	26123.30	303.2
382.900	26116.48	305.3
383.000	26109.66	307.6
383.100	26102.85	309.4
383.200	26096.03	311.9
383.300	26089.23	313.7
383.400	26082.42	315.7
383.500	26075.62	318
383.600	26068.82	320.5
383.700	26062.03	321.2
383.800	26055.24	323.9
383.900	26048.45	326.2
384.000	26041.67	328.2
384.100	26034.89	329.5
384.200	26028.11	331.9
384.300	26021.34	334.5
384.400	26014.57	336.7
384.500	26007.80	338.7
384.600	26001.04	341
384.700	25994.28	342.8
384.800	25987.53	344.9
384.900	25980.77	347.4
385.000	25974.03	349.4
385.100	25967.28	351.1
385.200	25960.54	354.1
385.300	25953.80	356.1
385.400	25947.07	358.3
385.500	25940.34	360.7
385.600	25933.61	362.7
385.700	25926.89	364.6
385.800	25920.17	367.7
385.900	25913.45	370.1
386.000	25906.74	371.9
386.100	25900.03	374.2
386.200	25893.32	377.4
386.300	25886.62	379.3
386.400	25879.92	381.4
386.500	25873.22	383.6
386.600	25866.53	385.9
386.700	25859.84	388.8
386.800	25853.15	390.2
386.900	25846.47	393.3
387.000	25839.79	395.6
387.100	25833.12	398
387.200	25826.45	400.4
387.300	25819.78	403.3
387.400	25813.11	405
387.500	25806.45	407.8
387.600	25799.79	409.7
387.700	25793.14	412.7
387.800	25786.49	415
387.900	25779.84	418.1
388.000	25773.20	420.4
388.100	25766.56	422.2
388.200	25759.92	425.8
388.300	25753.28	428
388.400	25746.65	430.4
388.500	25740.03	432.7
388.600	25733.40	435.7
388.700	25726.78	438.1
388.800	25720.16	441.1
388.900	25713.55	443.7
389.000	25706.94	445.6
389.100	25700.33	448.4
389.200	25693.73	450.7
389.300	25687.13	453.5
389.400	25680.53	456
389.500	25673.94	458.9
389.600	25667.35	461.3
389.700	25660.76	463.6
389.800	25654.18	466.7
389.900	25647.60	469.4
390.000	25641.03	472.1
390.100	25634.45	475
390.200	25627.88	478.1
390.300	25621.32	480.3
390.400	25614.75	482.6
390.500	25608.19	485.9
390.600	25601.64	488.3
390.700	25595.09	491
390.800	25588.54	493.6
390.900	25581.99	496.3
391.000	25575.45	498.5
391.100	25568.91	502.3
391.200	25562.37	505.1
391.300	25555.84	507.8
391.400	25549.31	510.6
391.500	25542.78	513.7
391.600	25536.26	516.9
391.700	25529.74	519.4
391.800	25523.23	522.3
391.900	25516.71	524.6
392.000	25510.20	527.3
392.100	25503.70	530.4
392.200	25497.20	533
392.300	25490.70	536
392.400	25484.20	538.5
392.500	25477.71	542.2
392.600	25471.22	544.9
392.700	25464.73	547.6
392.800	25458.25	550.8
392.900	25451.77	553.5
393.000	25445.29	556.4
393.100	25438.82	559.7
393.200	25432.35	562.3
393.300	25425.88	565.3
393.400	25419.42	568
393.500	25412.96	571.2
393.600	25406.50	574.8
393.700	25400.05	577
393.800	25393.60	580.5
393.900	25387.15	582.8
394.000	25380.71	586.3
394.100	25374.27	589.5
394.200	25367.83	592.7
394.300	25361.40	595.1
394.400	25354.97	598.8
394.500	25348.54	601.1
394.600	25342.12	604.3
394.700	25335.70	607.5
394.800	25329.28	610.5
394.900	25322.87	613.6
395.000	25316.46	616.8
395.100	25310.05	619.9
395.200	25303.64	622.6
395.300	25297.24	625.7
395.400	25290.84	628.4
395.500	25284.45	632.4
395.600	25278.06	635.7
395.700	25271.67	638.2
395.800	25265.29	641.4
395.900	25258.90	644.5
396.000	25252.53	648.4
396.100	25246.15	650.9
396.200	25239.78	654.1
396.300	25233.41	657.3
396.400	25227.04	660.2
396.500	25220.68	663.6
396.600	25214.32	666.7
396.700	25207.97	669.6
396.800	25201.61	673.3
396.900	25195.26	676.7
397.000	25188.92	679.7
397.100	25182.57	682.7
397.200	25176.23	686.1
397.300	25169.90	689.2
397.400	25163.56	692.3
397.500	25157.23	695.3
397.600	25150.91	698.8
397.700	25144.58	702.4
397.800	25138.26	705.6
397.900	25131.94	708.4
398.000	25125.63	711.2
398.100	25119.32	714.4
398.200	25113.01	717.8
398.300	25106.70	721.8
398.400	25100.40	724.4
398.500	25094.10	727.6
398.600	25087.81	730.8
398.700	25081.51	733.8
398.800	25075.23	737.9
398.900	25068.94	740.9
399.000	25062.66	744.1
399.100	25056.38	747
399.200	25050.10	750.9
399.300	25043.83	753.8
399.400	25037.56	757.2
399.500	25031.29	760.4
399.600	25025.03	763.8
399.700	25018.76	766.4
399.800	25012.51	770.4
399.900	25006.25	774
400.000	25000.00	776.6
400.100	24993.75	779.9
400.200	24987.51	783.3
400.300	24981.26	786.9
400.400	24975.02	789.5
400.500	24968.79	793.5
400.600	24962.56	796.4
400.700	24956.33	800.1
400.800	24950.10	803.1
400.900	24943.88	806.4
401.000	24937.66	809.6
401.100	24931.44	813
401.200	24925.22	816.3
401.300	24919.01	819.6
401.400	24912.81	822.5
401.500	24906.60	826.1
401.600	24900.40	829.8
401.700	24894.20	832.7
401.800	24888.00	836.5
401.900	24881.81	839.4
402.000	24875.62	842.8
402.100	24869.44	846.3
402.200	24863.25	850
402.300	24857.07	853.1
402.400	24850.89	856.3
402.500	24844.72	859.6
402.600	24838.55	863
402.700	24832.38	865.7
402.800	24826.22	869.5
402.900	24820.05	872.9
403.000	24813.90	875.6
403.100	24807.74	879.7
403.200	24801.59	882.6
403.300	24795.44	885.9
403.400	24789.29	888.9
403.500	24783.15	893.1
403.600	24777.01	896.2
403.700	24770.87	899.7
403.800	24764.74	902.5
403.900	24758.60	905.9
404.000	24752.48	909.2
404.100	24746.35	912
404.200	24740.23	915.8
404.300	24734.11	919
404.400	24727.99	922.4
404.500	24721.88	926
404.600	24715.77	929.5
404.700	24709.66	932
404.800	24703.56	935.5
404.900	24697.46	939.1
405.000	24691.36	942.1
405.100	24685.26	945.4
405.200	24679.17	949.2
405.300	24673.08	951.6
405.400	24667.00	954.7
405.500	24660.91	958.4
405.600	24654.83	961.4
405.700	24648.76	964.7
405.800	24642.68	968.1
405.900	24636.61	971.7
406.000	24630.54	974.6
406.100	24624.48	978.1
406.200	24618.41	980.9
406.300	24612.36	984.4
406.400	24606.30	987.3
406.500	24600.25	990.5
406.600	24594.20	994.1
406.700	24588.15	996.6
406.800	24582.10	1001
406.900	24576.06	1003
407.000	24570.02	1007
407.100	24563.99	1009
407.200	24557.96	1013
407.300	24551.93	1016
407.400	24545.90	1020
407.500	24539.88	1022
407.600	24533.86	1026
407.700	24527.84	1029
407.800	24521.82	1032
407.900	24515.81	1036
408.000	24509.80	1038
408.100	24503.80	1042
408.200	24497.80	1045
408.300	24491.80	1048
408.400	24485.80	1051
408.500	24479.80	1054
408.600	24473.81	1057
408.700	24467.82	1060
408.800	24461.84	1063
408.900	24455.86	1067
409.000	24449.88	1070
409.100	24443.90	1073
409.200	24437.93	1076
409.300	24431.96	1079
409.400	24425.99	1082
409.500	24420.02	1085
409.600	24414.06	1088
409.700	24408.10	1091
409.800	24402.15	1094
409.900	24396.19	1097
410.000	24390.24	1100
410.100	24384.30	1103
410.200	24378.35	1106
410.300	24372.41	1109
410.400	24366.47	1112
410.500	24360.54	1115
410.600	24354.60	1118
410.700	24348.67	1121
410.800	24342.75	1124
410.900	24336.82	1127
411.000	24330.90	1129
411.100	24324.98	1132
411.200	24319.07	1135
411.300	24313.15	1138
411.400	24307.24	1141
411.500	24301.34	1144
411.600	24295.43	1147
411.700	24289.53	1150
411.800	24283.63	1153
411.900	24277.74	1155
412.000	24271.84	1158
412.100	24265.95	1161
412.200	24260.07	1164
412.300	24254.18	1166
412.400	24248.30	1169
412.500	24242.42	1173
412.600	24236.55	1175
412.700	24230.68	1178
412.800	24224.81	1180
412.900	24218.94	1183
413.000	24213.08	1185
413.100	24207.21	1189
413.200	24201.36	1191
413.300	24195.50	1194
413.400	24189.65	1196
413.500	24183.80	1199
413.600	24177.95	1202
413.700	24172.11	1204
413.800	24166.26	1207
413.900	24160.43	1210
414.000	24154.59	1212
414.100	24148.76	1214
414.200	24142.93	1217
414.300	24137.10	1220
414.400	24131.27	1222
414.500	24125.45	1225
414.600	24119.63	1227
414.700	24113.82	1230
414.800	24108.00	1233
414.900	24102.19	1235
415.000	24096.39	1238
415.100	24090.58	1240
415.200	24084.78	1243
415.300	24078.98	1245
415.400	24073.18	1248
415.500	24067.39	1249
415.600	24061.60	1252
415.700	24055.81	1255
415.800	24050.02	1257
415.900	24044.24	1260
416.000	24038.46	1262
416.100	24032.68	1264
416.200	24026.91	1266
416.300	24021.14	1268
416.400	24015.37	1271
416.500	24009.60	1273
416.600	24003.84	1275
416.700	23998.08	1278
416.800	23992.32	1280
416.900	23986.57	1282
417.000	23980.82	1284
417.100	23975.07	1287
417.200	23969.32	1289
417.300	23963.58	1291
417.400	23957.83	1293
417.500	23952.10	1295
417.600	23946.36	1297
417.700	23940.63	1299
417.800	23934.90	1301
417.900	23929.17	1303
418.000	23923.44	1305
418.100	23917.72	1307
418.200	23912.00	1309
418.300	23906.29	1311
418.400	23900.57	1313
418.500	23894.86	1315
418.600	23889.15	1317
418.700	23883.45	1319
418.800	23877.75	1321
418.900	23872.05	1323
419.000	23866.35	1325
419.100	23860.65	1327
419.200	23854.96	1329
419.300	23849.27	1331
419.400	23843.59	1332
419.500	23837.90	1334
419.600	23832.22	1336
419.700	23826.54	1338
419.800	23820.87	1340
419.900	23815.19	1341
420.000	23809.52	1343
420.100	23803.86	1345
420.200	23798.19	1347
420.300	23792.53	1348
420.400	23786.87	1350
420.500	23781.21	1351
420.600	23775.56	1353
420.700	23769.91	1355
420.800	23764.26	1356
420.900	23758.61	1358
421.000	23752.97	1359
421.100	23747.33	1361
421.200	23741.69	1363
421.300	23736.06	1364
421.400	23730.42	1365
421.500	23724.79	1367
421.600	23719.17	1368
421.700	23713.54	1370
421.800	23707.92	1371
421.900	23702.30	1373
422.000	23696.68	1374
422.100	23691.07	1376
422.200	23685.46	1377
422.300	23679.85	1378
422.400	23674.24	1379
422.500	23668.64	1381
422.600	23663.04	1382
422.700	23657.44	1383
422.800	23651.84	1385
422.900	23646.25	1386
423.000	23640.66	1387
423.100	23635.07	1388
423.200	23629.49	1390
423.300	23623.91	1391
423.400	23618.33	1392
423.500	23612.75	1393
423.600	23607.18	1394
423.700	23601.60	1395
423.800	23596.04	1396
423.900	23590.47	1398
424.000	23584.91	1399
424.100	23579.34	1400
424.200	23573.79	1401
424.300	23568.23	1402
424.400	23562.68	1402
424.500	23557.13	1404
424.600	23551.58	1405
424.700	23546.03	1405
424.800	23540.49	1406
424.900	23534.95	1408
425.000	23529.41	1408
425.100	23523.88	1409
425.200	23518.34	1410
425.300	23512.81	1411
425.400	23507.29	1412
425.500	23501.76	1413
425.600	23496.24	1413
425.700	23490.72	1414
425.800	23485.20	1415
425.900	23479.69	1415
426.000	23474.18	1416
426.100	23468.67	1417
426.200	23463.16	1418
426.300	23457.66	1418
426.400	23452.16	1419
426.500	23446.66	1420
426.600	23441.16	1420
426.700	23435.67	1420
426.800	23430.18	1421
426.900	23424.69	1422
427.000	23419.20	1422
427.100	23413.72	1423
427.200	23408.24	1424
427.300	23402.76	1424
427.400	23397.29	1425
427.500	23391.81	1425
427.600	23386.34	1425
427.700	23380.87	1426
427.800	23375.41	1426
427.900	23369.95	1427
428.000	23364.49	1427
428.100	23359.03	1427
428.200	23353.57	1428
428.300	23348.12	1428
428.400	23342.67	1428
428.500	23337.22	1429
428.600	23331.78	1428
428.700	23326.34	1429
428.800	23320.90	1429
428.900	23315.46	1429
429.000	23310.02	1430
429.100	23304.59	1430
429.200	23299.16	1430
429.300	23293.73	1430
429.400	23288.31	1430
429.500	23282.89	1430
429.600	23277.47	1431
429.700	23272.05	1431
429.800	23266.64	1431
429.900	23261.22	1431
430.000	23255.81	1431
430.100	23250.41	1431
430.200	23245.00	1431
430.300	23239.60	1431
430.400	23234.20	1431
430.500	23228.80	1431
430.600	23223.41	1430
430.700	23218.02	1431
430.800	23212.63	1431
430.900	23207.24	1430
431.000	23201.86	1430
431.100	23196.47	1430
431.200	23191.09	1430
431.300	23185.72	1430
431.400	23180.34	1429
431.500	23174.97	1429
431.600	23169.60	1429
431.700	23164.23	1429
431.800	23158.87	1428
431.900	23153.51	1428
432.000	23148.15	1428
432.100	23142.79	1427
432.200	23137.44	1427
432.300	23132.08	1427
432.400	23126.73	1426
432.500	23121.39	1426
432.600	23116.04	1426
432.700	23110.70	1425
432.800	23105.36	1424
432.900	23100.02	1424
433.000	23094.69	1424
433.100	23089.36	1423
433.200	23084.03	1423
433.300	23078.70	1423
433.400	23073.37	1422
433.500	23068.05	1421
433.600	23062.73	1421
433.700	23057.41	1420
433.800	23052.10	1420
433.900	23046.78	1419
434.000	23041.47	1418
434.100	23036.17	1418
434.200	23030.86	1417
434.300	23025.56	1416
434.400	23020.26	1416
434.500	23014.96	1415
434.600	23009.66	1414
434.700	23004.37	1413
434.800	22999.08	1413
434.900	22993.79	1412
435.000	22988.51	1411
435.100	22983.22	1410
435.200	22977.94	1410
435.300	22972.66	1409
435.400	22967.39	1408
435.500	22962.11	1407
435.600	22956.84	1406
435.700	22951.57	1405
435.800	22946.31	1404
435.900	22941.04	1404
436.000	22935.78	1403
436.100	22930.52	1402
436.200	22925.26	1401
436.300	22920.01	1400
436.400	22914.76	1399
436.500	22909.51	1398
436.600	22904.26	1397
436.700	22899.02	1396
436.800	22893.77	1395
436.900	22888.53	1394
437.000	22883.30	1393
437.100	22878.06	1392
437.200	22872.83	1391
437.300	22867.60	1390
437.400	22862.37	1388
437.500	22857.14	1388
437.600	22851.92	1387
437.700	22846.70	1385
437.800	22841.48	1384
437.900	22836.26	1383
438.000	22831.05	1382
438.100	22825.84	1380
438.200	22820.63	1379
438.300	22815.42	1378
438.400	22810.22	1377
438.500	22805.02	1375
438.600	22799.82	1374
438.700	22794.62	1373
438.800	22789.43	1371
438.900	22784.23	1370
439.000	22779.04	1369
439.100	22773.86	1368
439.200	22768.67	1367
439.300	22763.49	1365
439.400	22758.31	1363
439.500	22753.13	1362
439.600	22747.95	1361
439.700	22742.78	1359
439.800	22737.61	1358
439.900	22732.44	1357
440.000	22727.27	1355
440.100	22722.11	1354
440.200	22716.95	1352
440.300	22711.79	1351
440.400	22706.63	1349
440.500	22701.48	1348
440.600	22696.32	1346
440.700	22691.17	1345
440.800	22686.03	1343
440.900	22680.88	1342
441.000	22675.74	1340
441.100	22670.60	1338
441.200	22665.46	1337
441.300	22660.32	1336
441.400	22655.19	1333
441.500	22650.06	1332
441.600	22644.93	1330
441.700	22639.80	1329
441.800	22634.68	1327
441.900	22629.55	1326
442.000	22624.43	1324
442.100	22619.32	1322
442.200	22614.20	1321
442.300	22609.09	1319
442.400	22603.98	1317
442.500	22598.87	1316
442.600	22593.76	1314
442.700	22588.66	1312
442.800	22583.56	1310
442.900	22578.46	1308
443.000	22573.36	1307
443.100	22568.27	1305
443.200	22563.18	1303
443.300	22558.09	1301
443.400	22553.00	1299
443.500	22547.91	1298
443.600	22542.83	1296
443.700	22537.75	1294
443.800	22532.67	1292
443.900	22527.60	1290
444.000	22522.52	1288
444.100	22517.45	1287
444.200	22512.38	1285
444.300	22507.31	1283
444.400	22502.25	1281
444.500	22497.19	1279
444.600	22492.13	1277
444.700	22487.07	1275
444.800	22482.01	1273
444.900	22476.96	1271
445.000	22471.91	1269
445.100	22466.86	1267
445.200	22461.81	1265
445.300	22456.77	1263
445.400	22451.73	1261
445.500	22446.69	1259
445.600	22441.65	1257
445.700	22436.62	1255
445.800	22431.58	1253
445.900	22426.55	1251
446.000	22421.52	1249
446.100	22416.50	1247
446.200	22411.47	1245
446.300	22406.45	1243
446.400	22401.43	1241
446.500	22396.42	1239
446.600	22391.40	1237
446.700	22386.39	1235
446.800	22381.38	1233
446.900	22376.37	1230
447.000	22371.36	1228
447.100	22366.36	1226
447.200	22361.36	1224
447.300	22356.36	1222
447.400	22351.36	1220
447.500	22346.37	1218
447.600	22341.38	1216
447.700	22336.39	1213
447.800	22331.40	1211
447.900	22326.41	1209
448.000	22321.43	1207
448.100	22316.45	1205
448.200	22311.47	1203
448.300	22306.49	1200
448.400	22301.52	1198
448.500	22296.54	1196
448.600	22291.57	1194
448.700	22286.61	1192
448.800	22281.64	1190
448.900	22276.68	1187
449.000	22271.71	1185
449.100	22266.76	1183
449.200	22261.80	1180
449.300	22256.84	1178
449.400	22251.89	1176
449.500	22246.94	1174
449.600	22241.99	1172
449.700	22237.05	1169
449.800	22232.10	1167
449.900	22227.16	1165
450.000	22222.22	1163
450.100	22217.29	1160
450.200	22212.35	1158
450.300	22207.42	1155
450.400	22202.49	1153
450.500	22197.56	1150
450.600	22192.63	1149
450.700	22187.71	1146
450.800	22182.79	1143
450.900	22177.87	1141
451.000	22172.95	1139
451.100	22168.03	1136
451.200	22163.12	1134
451.300	22158.21	1132
451.400	22153.30	1130
451.500	22148.39	1127
451.600	22143.49	1125
451.700	22138.59	1123
451.800	22133.69	1120
451.900	22128.79	1118
452.000	22123.89	1115
452.100	22119.00	1113
452.200	22114.11	1111
452.300	22109.22	1108
452.400	22104.33	1106
452.500	22099.45	1103
452.600	22094.56	1101
452.700	22089.68	1098
452.800	22084.81	1096
452.900	22079.93	1094
453.000	22075.06	1092
453.100	22070.18	1089
453.200	22065.31	1087
453.300	22060.45	1084
453.400	22055.58	1081
453.500	22050.72	1079
453.600	22045.86	1077
453.700	22041.00	1074
453.800	22036.14	1072
453.900	22031.28	1069
454.000	22026.43	1067
454.100	22021.58	1064
454.200	22016.73	1062
454.300	22011.89	1060
454.400	22007.04	1057
454.500	22002.20	1054
454.600	21997.36	1052
454.700	21992.52	1050
454.800	21987.69	1047
454.900	21982.85	1045
455.000	21978.02	1042
455.100	21973.19	1040
455.200	21968.37	1038
455.300	21963.54	1035
455.400	21958.72	1033
455.500	21953.90	1030
455.600	21949.08	1028
455.700	21944.26	1025
455.800	21939.45	1023
455.900	21934.63	1020
456.000	21929.82	1018
456.100	21925.02	1015
456.200	21920.21	1013
456.300	21915.41	1010
456.400	21910.60	1008
456.500	21905.81	1005
456.600	21901.01	1003
456.700	21896.21	1000
456.800	21891.42	997.8
456.900	21886.63	995.5
457.000	21881.84	992.5
457.100	21877.05	990.2
457.200	21872.27	987.8
457.300	21867.48	985.1
457.400	21862.70	982.4
457.500	21857.92	980.3
457.600	21853.15	977.6
457.700	21848.37	975.2
457.800	21843.60	972.5
457.900	21838.83	969.9
458.000	21834.06	967.5
458.100	21829.29	965.1
458.200	21824.53	962.9
458.300	21819.77	959.9
458.400	21815.01	957.2
458.500	21810.25	955.2
458.600	21805.49	952.8
458.700	21800.74	950
458.800	21795.99	947.6
458.900	21791.24	944.9
459.000	21786.49	942.5
459.100	21781.75	940.1
459.200	21777.00	937.4
459.300	21772.26	935
459.400	21767.52	932.4
459.500	21762.79	929.8
459.600	21758.05	927.4
459.700	21753.32	925
459.800	21748.59	922.2
459.900	21743.86	919.8
460.000	21739.13	917.2
460.100	21734.41	914.8
460.200	21729.68	912
460.300	21724.96	909.8
460.400	21720.24	907.2
460.500	21715.53	904.8
460.600	21710.81	902.2
460.700	21706.10	899.8
460.800	21701.39	897.3
460.900	21696.68	894.9
461.000	21691.97	892.3
461.100	21687.27	889.8
461.200	21682.57	887.2
461.300	21677.87	884.6
461.400	21673.17	882.3
461.500	21668.47	879.7
461.600	21663.78	877.3
461.700	21659.09	874.6
461.800	21654.40	872.1
461.900	21649.71	869.8
462.000	21645.02	867.3
462.100	21640.34	865.1
462.200	21635.66	862
462.300	21630.98	860.1
462.400	21626.30	857.5
462.500	21621.62	855
462.600	21616.95	852.3
462.700	21612.28	849.9
462.800	21607.61	847.4
462.900	21602.94	845
463.000	21598.27	842.7
463.100	21593.61	840.1
463.200	21588.95	837.7
463.300	21584.29	835.6
463.400	21579.63	833
463.500	21574.97	830.3
463.600	21570.32	828
463.700	21565.67	825.4
463.800	21561.02	823
463.900	21556.37	820.4
464.000	21551.72	818.5
464.100	21547.08	815.3
464.200	21542.44	813.3
464.300	21537.80	811.1
464.400	21533.16	808.2
464.500	21528.53	806
464.600	21523.89	803.6
464.700	21519.26	801.1
464.800	21514.63	798.2
464.900	21510.00	796.2
465.000	21505.38	793.9
465.100	21500.75	791.2
465.200	21496.13	788.9
465.300	21491.51	786.6
465.400	21486.89	784.4
465.500	21482.28	781.4
465.600	21477.66	779.3
465.700	21473.05	776.8
465.800	21468.44	774.2
465.900	21463.83	771.9
466.000	21459.23	769.8
466.100	21454.62	767
466.200	21450.02	764.5
466.300	21445.42	762.5
466.400	21440.82	760
466.500	21436.23	757.1
466.600	21431.63	755.1
466.700	21427.04	752.7
466.800	21422.45	750.1
466.900	21417.86	747.8
467.000	21413.28	746
467.100	21408.69	743.3
467.200	21404.11	741.1
467.300	21399.53	738.8
467.400	21394.95	736
467.500	21390.37	733.5
467.600	21385.80	731.5
467.700	21381.23	729.1
467.800	21376.66	726.6
467.900	21372.09	724.4
468.000	21367.52	721.9
468.100	21362.96	719.7
468.200	21358.39	717.3
468.300	21353.83	715.6
468.400	21349.27	712.8
468.500	21344.72	710.2
468.600	21340.16	708.4
468.700	21335.61	705.9
468.800	21331.06	703.3
468.900	21326.51	701.3
469.000	21321.96	699.2
469.100	21317.42	696.8
469.200	21312.87	694.3
469.300	21308.33	691.8
469.400	21303.79	689.8
469.500	21299.25	687.3
469.600	21294.72	685.2
469.700	21290.19	682.7
469.800	21285.65	680.6
469.900	21281.12	678.4
470.000	21276.60	675.8
470.100	21272.07	673.6
470.200	21267.55	671.3
470.300	21263.02	669.3
470.400	21258.50	666.7
470.500	21253.99	664.9
470.600	21249.47	662.7
470.700	21244.95	660.2
470.800	21240.44	657.6
470.900	21235.93	656.4
471.000	21231.42	653.6
471.100	21226.92	651.1
471.200	21222.41	649.1
471.300	21217.91	647
471.400	21213.41	644.3
471.500	21208.91	642.2
471.600	21204.41	640.2
471.700	21199.92	637.5
471.800	21195.42	635.5
471.900	21190.93	633.3
472.000	21186.44	631.2
472.100	21181.95	628.9
472.200	21177.47	627
472.300	21172.98	624.6
472.400	21168.50	622.5
472.500	21164.02	620.3
472.600	21159.54	618.4
472.700	21155.07	616.4
472.800	21150.59	613.8
472.900	21146.12	612.1
473.000	21141.65	609.4
473.100	21137.18	607.2
473.200	21132.71	605.4
473.300	21128.25	603.4
473.400	21123.79	600.9
473.500	21119.32	598.8
473.600	21114.86	596.9
473.700	21110.41	594.8
473.800	21105.95	592.5
473.900	21101.50	590.4
474.000	21097.05	588.3
474.100	21092.60	585.7
474.200	21088.15	584.1
474.300	21083.70	582.2
474.400	21079.26	579.7
474.500	21074.82	577.7
474.600	21070.38	575.8
474.700	21065.94	573.7
474.800	21061.50	571.9
474.900	21057.06	569.6
475.000	21052.63	567.3
475.100	21048.20	565.5
475.200	21043.77	563.2
475.300	21039.34	560.9
475.400	21034.92	558.8
475.500	21030.49	557.4
475.600	21026.07	555.2
475.700	21021.65	553
475.800	21017.23	550.7
475.900	21012.82	548.8
476.000	21008.40	546.6
476.100	21003.99	544.5
476.200	20999.58	542.4
476.300	20995.17	540.6
476.400	20990.76	538.7
476.500	20986.36	536.6
476.600	20981.96	534.7
476.700	20977.55	532.9
476.800	20973.15	530.9
476.900	20968.76	528.9
477.000	20964.36	526.8
477.100	20959.97	524.8
477.200	20955.57	522.6
477.300	20951.18	521.2
477.400	20946.80	518.8
477.500	20942.41	517
477.600	20938.02	514.8
477.700	20933.64	513.3
477.800	20929.26	511
477.900	20924.88	509.3
478.000	20920.50	507.3
478.100	20916.13	505.5
478.200	20911.75	503.3
478.300	20907.38	501.8
478.400	20903.01	499.9
478.500	20898.64	497.6
478.600	20894.27	496
478.700	20889.91	493.8
478.800	20885.55	492.5
478.900	20881.19	490.5
479.000	20876.83	488.6
479.100	20872.47	486.8
479.200	20868.11	484.8
479.300	20863.76	483.3
479.400	20859.41	481
479.500	20855.06	479.2
479.600	20850.71	477.3
479.700	20846.36	475
479.800	20842.02	473.2
479.900	20837.67	471.7
480.000	20833.33	470.1
480.100	20828.99	468.1
480.200	20824.66	466.1
480.300	20820.32	464.6
480.400	20815.99	462.6
480.500	20811.65	460.9
480.600	20807.32	459
480.700	20803.00	457.4
480.800	20798.67	455.3
480.900	20794.34	453.4
481.000	20790.02	452
481.100	20785.70	449.9
481.200	20781.38	448.1
481.300	20777.06	446.7
481.400	20772.75	444.7
481.500	20768.43	442.8
481.600	20764.12	441.2
481.700	20759.81	439.3
481.800	20755.50	437.6
481.900	20751.19	436.2
482.000	20746.89	433.9
482.100	20742.58	432
482.200	20738.28	430.4
482.300	20733.98	428.9
482.400	20729.68	427.3
482.500	20725.39	425.5
482.600	20721.09	423.8
482.700	20716.80	422.1
482.800	20712.51	420.2
482.900	20708.22	419.1
483.000	20703.93	417.6
483.100	20699.65	415.6
483.200	20695.36	413.5
483.300	20691.08	412.1
483.400	20686.80	410.4
483.500	20682.52	408.7
483.600	20678.25	407
483.700	20673.97	405.5
483.800	20669.70	403.3
483.900	20665.43	402.1
484.000	20661.16	400.4
484.100	20656.89	398.8
484.200	20652.62	396.9
484.300	20648.36	395.6
484.400	20644.10	393.9
484.500	20639.83	392.2
484.600	20635.58	391.1
484.700	20631.32	389.4
484.800	20627.06	387.5
484.900	20622.81	386.2
485.000	20618.56	384.7
485.100	20614.31	382.3
485.200	20610.06	381.1
485.300	20605.81	379.8
485.400	20601.57	377.8
485.500	20597.32	376.4
485.600	20593.08	374.9
485.700	20588.84	373.5
485.800	20584.60	371.7
485.900	20580.37	370.4
486.000	20576.13	368.7
486.100	20571.90	367.1
486.200	20567.67	366
486.300	20563.44	364.8
486.400	20559.21	362.8
486.500	20554.98	361.3
486.600	20550.76	359.9
486.700	20546.54	358.5
486.800	20542.32	356.8
486.900	20538.10	355.5
487.000	20533.88	354.2
487.100	20529.67	352.1
487.200	20525.45	350.9
487.300	20521.24	349.6
487.400	20517.03	347.7
487.500	20512.82	346.5
487.600	20508.61	345.1
487.700	20504.41	343.7
487.800	20500.21	341.8
487.900	20496.00	340.7
488.000	20491.80	339.4
488.100	20487.60	337.6
488.200	20483.41	336.3
488.300	20479.21	335.2
488.400	20475.02	333.7
488.500	20470.83	332
488.600	20466.64	330.8
488.700	20462.45	329.3
488.800	20458.27	327.7
488.900	20454.08	326.7
489.000	20449.90	325.1
489.100	20445.72	323.3
489.200	20441.54	322
489.300	20437.36	320.8
489.400	20433.18	319.3
489.500	20429.01	318.2
489.600	20424.84	317.2
489.700	20420.67	315.3
489.800	20416.50	313.9
489.900	20412.33	312.4
490.000	20408.16	311.2
490.100	20404.00	309.7
490.200	20399.84	308.5
490.300	20395.68	307.3
490.400	20391.52	306.1
490.500	20387.36	304.5
490.600	20383.20	303.4
490.700	20379.05	301.9
490.800	20374.90	300.6
490.900	20370.75	299.3
491.000	20366.60	298
491.100	20362.45	296.8
491.200	20358.31	295.2
491.300	20354.16	294.3
491.400	20350.02	292.8
491.500	20345.88	291.7
491.600	20341.74	290.2
491.700	20337.60	288.7
491.800	20333.47	287.6
491.900	20329.34	286.4
492.000	20325.20	284.9
492.100	20321.07	283.7
492.200	20316.94	282.7
492.300	20312.82	281.7
492.400	20308.69	280
492.500	20304.57	278.7
492.600	20300.45	277.7
492.700	20296.33	276.7
492.800	20292.21	275.3
492.900	20288.09	273.9
493.000	20283.98	272.8
493.100	20279.86	271.6
493.200	20275.75	270.4
493.300	20271.64	269.4
493.400	20267.53	267.9
493.500	20263.42	266.7
493.600	20259.32	265.6
493.700	20255.22	264.2
493.800	20251.11	263.1
493.900	20247.01	261.8
494.000	20242.91	260.8
494.100	20238.82	259.3
494.200	20234.72	258.6
494.300	20230.63	257.3
494.400	20226.54	256
494.500	20222.45	254.9
494.600	20218.36	253.8
494.700	20214.27	252.8
494.800	20210.19	251.5
494.900	20206.10	250.6
495.000	20202.02	249.3
495.100	20197.94	248.1
495.200	20193.86	247.3
495.300	20189.78	246
495.400	20185.71	244.9
495.500	20181.63	243.5
495.600	20177.56	242.7
495.700	20173.49	241.3
495.800	20169.42	239.9
495.900	20165.36	239.3
496.000	20161.29	238.3
496.100	20157.23	237.1
496.200	20153.16	235.5
496.300	20149.10	234.8
496.400	20145.04	233.8
496.500	20140.99	232.8
496.600	20136.93	231.7
496.700	20132.88	230.9
496.800	20128.82	229.2
496.900	20124.77	228.5
497.000	20120.72	227.5
497.100	20116.68	226.5
497.200	20112.63	225
497.300	20108.59	224.2
497.400	20104.54	223.5
497.500	20100.50	222
497.600	20096.46	221.2
497.700	20092.43	219.9
497.800	20088.39	219.2
497.900	20084.35	218
498.000	20080.32	217.4
498.100	20076.29	215.9
498.200	20072.26	215.1
498.300	20068.23	214.3
498.400	20064.21	213.5
498.500	20060.18	211.9
498.600	20056.16	210.9
498.700	20052.14	210.2
498.800	20048.12	209.2
498.900	20044.10	208.3
499.000	20040.08	207.4
499.100	20036.06	206.3
499.200	20032.05	205.6
499.300	20028.04	204.6
499.400	20024.03	203.5
499.500	20020.02	202.4
499.600	20016.01	201.7
499.700	20012.01	200.7
499.800	20008.00	199.5
499.900	20004.00	198.9
500.000	20000.00	198
500.100	19996.00	196.8
500.200	19992.00	196.3
500.300	19988.01	195.4
500.400	19984.01	194
500.500	19980.02	193.3
500.600	19976.03	192.4
500.700	19972.04	191.7
500.800	19968.05	190.6
500.900	19964.06	189.6
501.000	19960.08	188.9
501.100	19956.10	187.8
501.200	19952.11	187
501.300	19948.13	186.4
501.400	19944.16	185
501.500	19940.18	184.5
501.600	19936.20	183.3
501.700	19932.23	182.4
501.800	19928.26	181.2
501.900	19924.29	180.5
502.000	19920.32	180.2
502.100	19916.35	179
502.200	19912.39	177.8
502.300	19908.42	177.4
502.400	19904.46	176.4
502.500	19900.50	175.4
502.600	19896.54	174.9
502.700	19892.58	174
502.800	19888.62	173.1
502.900	19884.67	172.2
503.000	19880.72	171.8
503.100	19876.76	170.4
503.200	19872.81	169.8
503.300	19868.87	169.1
503.400	19864.92	168.1
503.500	19860.97	167
503.600	19857.03	166.5
503.700	19853.09	165.8
503.800	19849.15	164.6
503.900	19845.21	164.2
504.000	19841.27	163.7
504.100	19837.33	162.4
504.200	19833.40	161.9
504.300	19829.47	161.1
504.400	19825.54	160
504.500	19821.61	159.2
504.600	19817.68	159
504.700	19813.75	158
504.800	19809.83	156.9
504.900	19805.90	156.7
505.000	19801.98	155.7
505.100	19798.06	154.5
505.200	19794.14	154.2
505.300	19790.22	153.4
505.400	19786.31	152.4
505.500	19782.39	152.3
505.600	19778.48	151.3
505.700	19774.57	150.3
505.800	19770.66	149.6
505.900	19766.75	149.1
506.000	19762.85	148.6
506.100	19758.94	147.1
506.200	19755.04	146.9
506.300	19751.14	146.1
506.400	19747.24	145.4
506.500	19743.34	144.9
506.600	19739.44	144.3
506.700	19735.54	143.5
506.800	19731.65	142.4
506.900	19727.76	142.2
507.000	19723.87	141.3
507.100	19719.98	140.3
507.200	19716.09	140.2
507.300	19712.20	139.2
507.400	19708.32	138.3
507.500	19704.43	137.6
507.600	19700.55	137.1
507.700	19696.67	136.4
507.800	19692.79	135.9
507.900	19688.92	135.1
508.000	19685.04	134.4
508.100	19681.17	133.6
508.200	19677.29	132.8
508.300	19673.42	132.4
508.400	19669.55	131.5
508.500	19665.68	130.6
508.600	19661.82	130.2
508.700	19657.95	129.5
508.800	19654.09	129.2
508.900	19650.23	128.2
509.000	19646.37	127.9
509.100	19642.51	126.9
509.200	19638.65	126.6
509.300	19634.79	125.9
509.400	19630.94	125.2
509.500	19627.09	124.8
509.600	19623.23	124.2
509.700	19619.38	123.4
509.800	19615.54	122.7
509.900	19611.69	121.9
510.000	19607.84	121.3
510.100	19604.00	120.9
510.200	19600.16	120.3
510.300	19596.32	119.7
510.400	19592.48	119
510.500	19588.64	118.3
510.600	19584.80	117.8
510.700	19580.97	117.6
510.800	19577.13	116.8
510.900	19573.30	115.9
511.000	19569.47	115.7
511.100	19565.64	115
511.200	19561.82	114.5
511.300	19557.99	113.7
511.400	19554.17	113.6
511.500	19550.34	113
511.600	19546.52	112.2
511.700	19542.70	111.7
511.800	19538.88	110.9
511.900	19535.07	110.8
512.000	19531.25	110
512.100	19527.44	109.3
512.200	19523.62	108.9
512.300	19519.81	108.5
512.400	19516.00	107.5
512.500	19512.20	107.2
512.600	19508.39	106.3
512.700	19504.58	106
512.800	19500.78	105.4
512.900	19496.98	105
513.000	19493.18	104.3
513.100	19489.38	103.7
513.200	19485.58	103.6
513.300	19481.78	102.6
513.400	19477.99	102.5
513.500	19474.20	101.8
513.600	19470.40	101.4
513.700	19466.61	100.6
513.800	19462.83	100.1
513.900	19459.04	99.89
514.000	19455.25	99.3
514.100	19451.47	98.88
514.200	19447.69	98.04
514.300	19443.90	97.89
514.400	19440.12	97.41
514.500	19436.35	97.03
514.600	19432.57	96.39
514.700	19428.79	95.41
514.800	19425.02	94.91
514.900	19421.25	94.38
515.000	19417.48	94.27
515.100	19413.71	93.63
515.200	19409.94	93.06
515.300	19406.17	92.7
515.400	19402.41	92.12
515.500	19398.64	91.52
515.600	19394.88	91.29
515.700	19391.12	90.74
515.800	19387.36	90.29
515.900	19383.60	89.98
516.000	19379.84	89.37
516.100	19376.09	89.07
516.200	19372.34	88.54
516.300	19368.58	88.47
516.400	19364.83	87.83
516.500	19361.08	87.14
516.600	19357.34	86.8
516.700	19353.59	86.49
516.800	19349.85	85.87
516.900	19346.10	85.55
517.000	19342.36	84.98
517.100	19338.62	84.74
517.200	19334.88	83.95
517.300	19331.14	83.96
517.400	19327.41	83.17
517.500	19323.67	82.59
517.600	19319.94	82.3
517.700	19316.21	82.08
517.800	19312.48	81.13
517.900	19308.75	81.1
518.000	19305.02	80.62
518.100	19301.29	80.27
518.200	19297.57	79.91
518.300	19293.85	79.22
518.400	19290.12	78.94
518.500	19286.40	78.46
518.600	19282.68	77.99
518.700	19278.97	77.86
518.800	19275.25	77.05
518.900	19271.54	76.88
519.000	19267.82	76.64
519.100	19264.11	75.94
519.200	19260.40	75.32
519.300	19256.69	75.31
519.400	19252.98	74.59
519.500	19249.28	74.29
519.600	19245.57	74.2
519.700	19241.87	74.2
519.800	19238.17	73.28
519.900	19234.47	73
520.000	19230.77	72.65
520.100	19227.07	72.31
520.200	19223.38	71.56
520.300	19219.68	71.39
520.400	19215.99	70.94
520.500	19212.30	70.81
520.600	19208.61	70.51
520.700	19204.92	69.75
520.800	19201.23	69.59
520.900	19197.54	68.95
521.000	19193.86	68.61
521.100	19190.17	68.16
521.200	19186.49	68
521.300	19182.81	68.05
521.400	19179.13	67.08
521.500	19175.46	66.8
521.600	19171.78	66.51
521.700	19168.10	66.16
521.800	19164.43	65.71
521.900	19160.76	65.73
522.000	19157.09	65.22
522.100	19153.42	64.9
522.200	19149.75	64.49
522.300	19146.08	64.35
522.400	19142.42	63.64
522.500	19138.76	63.49
522.600	19135.09	63.08
522.700	19131.43	62.67
522.800	19127.77	62.36
522.900	19124.12	62.02
523.000	19120.46	61.78
523.100	19116.80	61.23
523.200	19113.15	61.25
523.300	19109.50	60.95
523.400	19105.85	60.54
523.500	19102.20	60.31
523.600	19098.55	59.74
523.700	19094.90	59.16
523.800	19091.26	58.96
523.900	19087.61	59.11
524.000	19083.97	58.44
524.100	19080.33	58.07
524.200	19076.69	58.05
524.300	19073.05	57.64
524.400	19069.41	57.34
524.500	19065.78	57.08
524.600	19062.14	56.53
524.700	19058.51	56.31
524.800	19054.88	55.95
524.900	19051.25	56
525.000	19047.62	55.79
525.100	19043.99	55
525.200	19040.37	54.96
525.300	19036.74	54.54
525.400	19033.12	54.04
525.500	19029.50	54.12
525.600	19025.88	53.93
525.700	19022.26	53.44
525.800	19018.64	53.34
525.900	19015.02	52.9
526.000	19011.41	52.53
526.100	19007.79	52.21
526.200	19004.18	52.12
526.300	19000.57	51.36
526.400	18996.96	51.14
526.500	18993.35	51.04
526.600	18989.75	50.66
526.700	18986.14	50.48
526.800	18982.54	50.21
526.900	18978.93	50.19
527.000	18975.33	49.88
527.100	18971.73	49.48
527.200	18968.13	49.42
527.300	18964.54	49.02
527.400	18960.94	48.9
527.500	18957.35	48.57
527.600	18953.75	48.45
527.700	18950.16	47.63
527.800	18946.57	47.97
527.900	18942.98	47.68
528.000	18939.39	47.1
528.100	18935.81	47.05
528.200	18932.22	46.59
528.300	18928.64	46.55
528.400	18925.06	46.13
528.500	18921.48	45.83
528.600	18917.90	45.26
528.700	18914.32	45.4
528.800	18910.74	44.97
528.900	18907.17	44.73
529.000	18903.59	44.45
529.100	18900.02	44.54
529.200	18896.45	44.48
529.300	18892.88	44.16
529.400	18889.31	43.55
529.500	18885.74	43.72
529.600	18882.18	43.35
529.700	18878.61	43.11
529.800	18875.05	42.96
529.900	18871.49	42.62
530.000	18867.92	42.45
530.100	18864.37	42.09
530.200	18860.81	42
530.300	18857.25	41.84
530.400	18853.70	41.54
530.500	18850.14	41.46
530.600	18846.59	40.94
530.700	18843.04	40.73
530.800	18839.49	40.53
530.900	18835.94	40.11
531.000	18832.39	40.17
531.100	18828.85	39.95
531.200	18825.30	39.63
531.300	18821.76	39.4
531.400	18818.22	39.11
531.500	18814.68	38.98
531.600	18811.14	38.76
531.700	18807.60	38.41
531.800	18804.06	38.49
531.900	18800.53	38.06
532.000	18796.99	37.86
532.100	18793.46	37.71
532.200	18789.93	37.16
532.300	18786.40	37.32
532.400	18782.87	37.03
532.500	18779.34	36.75
532.600	18775.82	36.76
532.700	18772.29	36.42
532.800	18768.77	36.35
532.900	18765.25	35.69
533.000	18761.73	35.94
533.100	18758.21	35.71
533.200	18754.69	35.51
533.300	18751.17	35.39
533.400	18747.66	34.94
533.500	18744.14	34.77
533.600	18740.63	34.42
533.700	18737.12	34.36
533.800	18733.61	34.31
533.900	18730.10	33.81
534.000	18726.59	33.94
534.100	18723.09	33.73
534.200	18719.58	33.62
534.300	18716.08	33.13
534.400	18712.57	33.3
534.500	18709.07	32.78
534.600	18705.57	32.92
534.700	18702.08	32.68
534.800	18698.58	32.2
534.900	18695.08	31.73
535.000	18691.59	32.23
535.100	18688.10	31.88
535.200	18684.60	31.54
535.300	18681.11	31.36
535.400	18677.62	31.41
535.500	18674.14	30.79
535.600	18670.65	30.99
535.700	18667.16	30.93
535.800	18663.68	30.43
535.900	18660.20	30.64
536.000	18656.72	30.27
536.100	18653.24	29.76
536.200	18649.76	29.51
536.300	18646.28	29.9
536.400	18642.80	29.38
536.500	18639.33	29.09
536.600	18635.86	29.34
536.700	18632.38	28.81
536.800	18628.91	28.94
536.900	18625.44	28.76
537.000	18621.97	28.48
537.100	18618.51	28.08
537.200	18615.04	28.18
537.300	18611.58	27.88
537.400	18608.11	28.09
537.500	18604.65	27.51
537.600	18601.19	27.64
537.700	18597.73	27.19
537.800	18594.27	27.35
537.900	18590.82	27.07
538.000	18587.36	26.9
538.100	18583.91	26.44
538.200	18580.45	26.63
538.300	18577.00	26.47
538.400	18573.55	26.16
538.500	18570.10	25.77
538.600	18566.65	26.56
538.700	18563.21	25.86
538.800	18559.76	25.67
538.900	18556.32	25.64
539.000	18552.88	25.61
539.100	18549.43	25.23
539.200	18545.99	25.13
539.300	18542.56	25.24
539.400	18539.12	24.98
539.500	18535.68	24.9
539.600	18532.25	24.71
539.700	18528.81	24.46
539.800	18525.38	24
539.900	18521.95	24.02
540.000	18518.52	24.32
540.100	18515.09	23.96
540.200	18511.66	24.06
540.300	18508.24	24.05
540.400	18504.81	23.31
540.500	18501.39	23.52
540.600	18497.97	23.31
540.700	18494.54	23.2
540.800	18491.12	23.39
540.900	18487.71	23.18
541.000	18484.29	22.29
541.100	18480.87	22.81
541.200	18477.46	22.47
541.300	18474.04	22.54
541.400	18470.63	22.34
541.500	18467.22	22.07
541.600	18463.81	22.2
541.700	18460.40	21.91
541.800	18457.00	22.05
541.900	18453.59	21.32
542.000	18450.18	21.25
542.100	18446.78	21.46
542.200	18443.38	21.51
542.300	18439.98	21.26
542.400	18436.58	20.43
542.500	18433.18	20.83
542.600	18429.78	20.73
542.700	18426.39	20.57
542.800	18422.99	20.13
542.900	18419.60	20.32
543.000	18416.21	20.37
543.100	18412.82	20.42
543.200	18409.43	20.02
543.300	18406.04	19.97
543.400	18402.65	19.7
543.500	18399.26	19.68
543.600	18395.88	19.56
543.700	18392.50	19.47
543.800	18389.11	19.09
543.900	18385.73	19.06
544.000	18382.35	19.14
544.100	18378.97	19.33
544.200	18375.60	18.73
544.300	18372.22	18.96
544.400	18368.85	18.82
544.500	18365.47	18.63
544.600	18362.10	18.38
544.700	18358.73	18.25
544.800	18355.36	18.45
544.900	18351.99	18.07
545.000	18348.62	18.13
545.100	18345.26	18.06
545.200	18341.89	17.72
545.300	18338.53	17.31
545.400	18335.17	17.7
545.500	18331.81	17.67
545.600	18328.45	17.36
545.700	18325.09	17.11
545.800	18321.73	17.5
545.900	18318.37	17.08
546.000	18315.02	17.02
546.100	18311.66	16.97
546.200	18308.31	16.84
546.300	18304.96	16.75
546.400	18301.61	16.66
546.500	18298.26	16.48
546.600	18294.91	16.34
546.700	18291.57	16.49
546.800	18288.22	16.31
546.900	18284.88	16.51
547.000	18281.54	16.17
547.100	18278.19	16.14
547.200	18274.85	15.78
547.300	18271.51	15.95
547.400	18268.18	16
547.500	18264.84	15.58
547.600	18261.50	15.19
547.700	18258.17	15.65
547.800	18254.84	15.62
547.900	18251.51	15.2
548.000	18248.18	15.37
548.100	18244.85	15.02
548.200	18241.52	14.82
548.300	18238.19	15.21
548.400	18234.87	14.83
548.500	18231.54	14.69
548.600	18228.22	14.66
548.700	18224.90	14.57
548.800	18221.57	14.82
548.900	18218.25	14.24
549.000	18214.94	14.45
549.100	18211.62	14.13
549.200	18208.30	14.26
549.300	18204.99	14.29
549.400	18201.67	14.19
549.500	18198.36	13.93
549.600	18195.05	13.88
549.700	18191.74	13.71
549.800	18188.43	13.54
549.900	18185.12	13.14
550.000	18181.82	13.57
550.100	18178.51	13.55
550.200	18175.21	13.28
550.300	18171.91	13.33
550.400	18168.60	13.18
550.500	18165.30	13.18
550.600	18162.01	12.92
550.700	18158.71	13.1
550.800	18155.41	12.94
550.900	18152.11	12.82
551.000	18148.82	12.9
551.100	18145.53	12.63
551.200	18142.24	12.51
551.300	18138.94	12.67
551.400	18135.65	12.5
551.500	18132.37	12.06
551.600	18129.08	12.26
551.700	18125.79	12.33
551.800	18122.51	11.99
551.900	18119.22	11.93
552.000	18115.94	12.01
552.100	18112.66	12.07
552.200	18109.38	11.73
552.300	18106.10	11.76
552.400	18102.82	11.88
552.500	18099.55	11.74
552.600	18096.27	11.62
552.700	18093.00	11.53
552.800	18089.73	11.12
552.900	18086.45	11.33
553.000	18083.18	11.19
553.100	18079.91	10.84
553.200	18076.64	10.94
553.300	18073.38	11.15
553.400	18070.11	10.99
553.500	18066.85	10.58
553.600	18063.58	10.87
553.700	18060.32	10.65
553.800	18057.06	10.77
553.900	18053.80	10.86
554.000	18050.54	10.7
554.100	18047.28	10.37
554.200	18044.03	10.32
554.300	18040.77	10.24
554.400	18037.52	10.39
554.500	18034.27	10.16
554.600	18031.01	9.999
554.700	18027.76	10.26
554.800	18024.51	9.854
554.900	18021.27	9.764
555.000	18018.02	9.983
555.100	18014.77	10.2
555.200	18011.53	10.02
555.300	18008.28	9.771
555.400	18005.04	9.8
555.500	18001.80	9.874
555.600	17998.56	9.786
555.700	17995.32	9.809
555.800	17992.08	9.559
555.900	17988.85	9.771
556.000	17985.61	9.433
556.100	17982.38	9.28
556.200	17979.14	9.617
556.300	17975.91	9.426
556.400	17972.68	9.294
556.500	17969.45	9.347
556.600	17966.22	9.172
556.700	17963.00	8.994
556.800	17959.77	8.942
556.900	17956.55	8.904
557.000	17953.32	9.002
557.100	17950.10	8.737
557.200	17946.88	9.07
557.300	17943.66	8.334
557.400	17940.44	8.599
557.500	17937.22	8.57
557.600	17934.00	8.171
557.700	17930.79	8.354
557.800	17927.57	8.313
557.900	17924.36	8.418
558.000	17921.15	8.327
558.100	17917.94	8.56
558.200	17914.73	8.098
558.300	17911.52	8.113
558.400	17908.31	7.895
558.500	17905.10	8.298
558.600	17901.90	7.846
558.700	17898.69	7.785
558.800	17895.49	8.018
558.900	17892.29	7.778
559.000	17889.09	7.733
559.100	17885.89	7.631
559.200	17882.69	7.736
559.300	17879.49	7.321
559.400	17876.30	7.676
559.500	17873.10	7.555
559.600	17869.91	7.849
559.700	17866.71	7.582
559.800	17863.52	7.725
559.900	17860.33	7.442
560.000	17857.14	7.508
560.100	17853.95	7.52
560.200	17850.77	7.086
560.300	17847.58	7.122
560.400	17844.40	7.512
560.500	17841.21	7.464
560.600	17838.03	7.2
560.700	17834.85	7.078
560.800	17831.67	7.346
560.900	17828.49	6.85
561.000	17825.31	6.722
561.100	17822.14	7.206
561.200	17818.96	7.124
561.300	17815.78	6.904
561.400	17812.61	6.762
561.500	17809.44	7.189
561.600	17806.27	6.696
561.700	17803.10	6.725
561.800	17799.93	6.909
561.900	17796.76	6.457
562.000	17793.59	6.547
562.100	17790.43	6.414
562.200	17787.26	6.675
562.300	17784.10	6.372
562.400	17780.94	6.099
562.500	17777.78	6.578
562.600	17774.62	6.421
562.700	17771.46	6.496
562.800	17768.30	6.437
562.900	17765.14	6.085
563.000	17761.99	6.113
563.100	17758.84	6.466
563.200	17755.68	5.962
563.300	17752.53	6.062
563.400	17749.38	6.362
563.500	17746.23	6.115
563.600	17743.08	5.894
563.700	17739.93	6.379
563.800	17736.79	6.126
563.900	17733.64	6.139
564.000	17730.50	5.888
564.100	17727.35	6.267
564.200	17724.21	5.664
564.300	17721.07	5.534
564.400	17717.93	6.046
564.500	17714.79	5.862
564.600	17711.65	5.815
564.700	17708.52	5.925
564.800	17705.38	5.877
564.900	17702.25	5.672
565.000	17699.12	5.245
565.100	17695.98	5.727
565.200	17692.85	5.551
565.300	17689.72	5.183
565.400	17686.59	5.486
565.500	17683.47	5.377
565.600	17680.34	5.521
565.700	17677.21	5.43
565.800	17674.09	5.165
565.900	17670.97	5.156
566.000	17667.84	5.472
566.100	17664.72	5.311
566.200	17661.60	5.266
566.300	17658.48	5.411
566.400	17655.37	5.194
566.500	17652.25	5.227
566.600	17649.14	5.307
566.700	17646.02	5.388
566.800	17642.91	5.259
566.900	17639.80	4.971
567.000	17636.68	5.169
567.100	17633.57	5.102
567.200	17630.47	5.031
567.300	17627.36	4.991
567.400	17624.25	5.151
567.500	17621.15	4.819
567.600	17618.04	4.947
567.700	17614.94	4.822
567.800	17611.84	4.637
567.900	17608.73	4.738
568.000	17605.63	4.838
568.100	17602.53	4.877
568.200	17599.44	4.688
568.300	17596.34	4.572
568.400	17593.24	4.664
568.500	17590.15	4.329
568.600	17587.06	4.671
568.700	17583.96	4.562
568.800	17580.87	4.544
568.900	17577.78	4.265
569.000	17574.69	4.533
569.100	17571.60	4.285
569.200	17568.52	4.272
569.300	17565.43	4.168
569.400	17562.35	4.385
569.500	17559.26	4.17
569.600	17556.18	3.941
569.700	17553.10	3.996
569.800	17550.02	3.925
569.900	17546.94	4.007
570.000	17543.86	3.752
570.100	17540.78	4.091
570.200	17537.71	3.826
570.300	17534.63	4.067
570.400	17531.56	3.86
570.500	17528.48	4.07
570.600	17525.41	3.899
570.700	17522.34	4.111
570.800	17519.27	3.919
570.900	17516.20	3.838
571.000	17513.13	3.826
571.100	17510.07	3.825
571.200	17507.00	3.648
571.300	17503.94	3.388
571.400	17500.88	3.667
571.500	17497.81	3.791
571.600	17494.75	3.79
571.700	17491.69	3.888
571.800	17488.63	3.394
571.900	17485.57	3.411
572.000	17482.52	3.643
572.100	17479.46	3.54
572.200	17476.41	3.489
572.300	17473.35	3.382
572.400	17470.30	3.291
572.500	17467.25	3.323
572.600	17464.20	3.378
572.700	17461.15	3.488
572.800	17458.10	3.231
572.900	17455.05	3.287
573.000	17452.01	3.662
573.100	17448.96	3.328
573.200	17445.92	3.351
573.300	17442.87	3.583
573.400	17439.83	3.354
573.500	17436.79	3.125
573.600	17433.75	3.411
573.700	17430.71	3.331
573.800	17427.68	3.158
573.900	17424.64	3.345
574.000	17421.60	3.253
574.100	17418.57	3.133
574.200	17415.53	3.004
574.300	17412.50	3.284
574.400	17409.47	3.224
574.500	17406.44	3.187
574.600	17403.41	3.21
574.700	17400.38	2.98
574.800	17397.36	2.707
574.900	17394.33	3.056
575.000	17391.30	3.477
575.100	17388.28	2.818
575.200	17385.26	2.538
575.300	17382.24	2.69
575.400	17379.21	2.767
575.500	17376.19	3.009
575.600	17373.18	2.877
575.700	17370.16	3.022
575.800	17367.14	2.792
575.900	17364.13	2.79
576.000	17361.11	2.773
576.100	17358.10	2.525
576.200	17355.09	2.915
576.300	17352.07	2.631
576.400	17349.06	2.625
576.500	17346.05	2.605
576.600	17343.05	2.687
576.700	17340.04	2.802
576.800	17337.03	2.654
576.900	17334.03	2.844
577.000	17331.02	2.955
577.100	17328.02	2.545
577.200	17325.02	2.786
577.300	17322.02	2.941
577.400	17319.02	2.425
577.500	17316.02	2.786
577.600	17313.02	2.849
577.700	17310.02	2.617
577.800	17307.03	2.798
577.900	17304.03	2.738
578.000	17301.04	2.553
578.100	17298.05	2.519
578.200	17295.05	2.631
578.300	17292.06	2.553
578.400	17289.07	1.988
578.500	17286.08	2.093
578.600	17283.10	2.106
578.700	17280.11	1.863
578.800	17277.13	2.102
578.900	17274.14	1.84
579.000	17271.16	2.084
579.100	17268.17	2.062
579.200	17265.19	2.057
579.300	17262.21	2.167
579.400	17259.23	2.165
579.500	17256.26	2.095
579.600	17253.28	2.358
579.700	17250.30	1.937
579.800	17247.33	1.713
579.900	17244.35	1.894
580.000	17241.38	1.774
580.100	17238.41	1.734
580.200	17235.44	2.042
580.300	17232.47	1.888
580.400	17229.50	1.836
580.500	17226.53	1.648
580.600	17223.56	2.016
580.700	17220.60	1.717
580.800	17217.63	1.529
580.900	17214.67	1.989
581.000	17211.70	1.871
581.100	17208.74	1.759
581.200	17205.78	1.846
581.300	17202.82	1.566
581.400	17199.86	1.745
581.500	17196.90	1.923
581.600	17193.95	1.87
581.700	17190.99	1.739
581.800	17188.04	1.448
581.900	17185.08	1.705
582.000	17182.13	1.795
582.100	17179.18	1.821
582.200	17176.23	1.398
582.300	17173.28	1.668
582.400	17170.33	1.661
582.500	17167.38	1.754
582.600	17164.44	1.472
582.700	17161.49	1.328
582.800	17158.54	1.609
582.900	17155.60	1.675
583.000	17152.66	1.651
583.100	17149.72	1.383
583.200	17146.78	1.325
583.300	17143.84	1.324
583.400	17140.90	1.775
583.500	17137.96	1.719
583.600	17135.02	1.78
583.700	17132.09	1.724
583.800	17129.15	1.68
583.900	17126.22	1.688
584.000	17123.29	1.651
584.100	17120.36	1.601
584.200	17117.43	1.561
584.300	17114.50	1.775
584.400	17111.57	1.691
584.500	17108.64	1.358
584.600	17105.71	1.428
584.700	17102.79	1.573
584.800	17099.86	1.442
584.900	17096.94	1.476
585.000	17094.02	1.308
585.100	17091.10	1.329
585.200	17088.17	1.512
585.300	17085.26	1.344
585.400	17082.34	1.292
585.500	17079.42	1.086
585.600	17076.50	1.268
585.700	17073.59	1.204
585.800	17070.67	1.31
585.900	17067.76	1.45
586.000	17064.85	0.933
586.100	17061.93	1.572
586.200	17059.02	1.08
586.300	17056.11	1.328
586.400	17053.21	1.465
586.500	17050.30	0.881
586.600	17047.39	1.284
586.700	17044.49	1.061
586.800	17041.58	1.128
586.900	17038.68	0.9473
587.000	17035.78	0.8949
587.100	17032.87	0.9288
587.200	17029.97	1.163
587.300	17027.07	1.126
587.400	17024.17	1.378
587.500	17021.28	1.146
587.600	17018.38	1.245
587.700	17015.48	1.136
587.800	17012.59	1.181
587.900	17009.70	1.022
588.000	17006.80	0.9774
588.100	17003.91	0.9812
588.200	17001.02	0.9096
588.300	16998.13	0.8985
588.400	16995.24	0.8882
588.500	16992.35	0.8083
588.600	16989.47	1.024
588.700	16986.58	0.9507
588.800	16983.70	0.5081
588.900	16980.81	0.5695
589.000	16977.93	1.03
589.100	16975.05	0.6443
589.200	16972.17	0.7851
589.300	16969.29	0.4942
589.400	16966.41	0.8108
589.500	16963.53	0.8563
589.600	16960.65	0.8795
589.700	16957.78	0.7407
589.800	16954.90	0.7838
589.900	16952.03	0.7723
590.000	16949.15	0.8909
590.100	16946.28	0.9815
590.200	16943.41	0.9943
590.300	16940.54	0.8104
590.400	16937.67	0.7384
590.500	16934.80	0.8232
590.600	16931.93	0.5918
590.700	16929.07	0.7
590.800	16926.20	0.7684
590.900	16923.34	0.7181
591.000	16920.47	0.9117
591.100	16917.61	0.718
591.200	16914.75	0.7534
591.300	16911.89	0.9547
591.400	16909.03	1.147
591.500	16906.17	0.999
591.600	16903.31	0.6956
591.700	16900.46	0.8591
591.800	16897.60	0.6376
591.900	16894.75	1.276
592.000	16891.89	0.6012
592.100	16889.04	0.934
592.200	16886.19	1.013
592.300	16883.34	0.6412
592.400	16880.49	0.9538
592.500	16877.64	0.6431
592.600	16874.79	0.6533
592.700	16871.94	0.7722
592.800	16869.10	0.7363
592.900	16866.25	0.6092
593.000	16863.41	0.3724
593.100	16860.56	0.4769
593.200	16857.72	0.6122
593.300	16854.88	0.3523
593.400	16852.04	0.5804
593.500	16849.20	0.3396
593.600	16846.36	0.512
593.700	16843.52	0.5078
593.800	16840.69	0.6962
593.900	16837.85	0.6112
594.000	16835.02	0.4628
594.100	16832.18	0.6176
594.200	16829.35	0.3358
594.300	16826.52	0.2809
594.400	16823.69	0.1462
594.500	16820.86	0.2092
594.600	16818.03	0.2537
594.700	16815.20	0.2223
594.800	16812.37	-0.02524
594.900	16809.55	0.04228
595.000	16806.72	0.3345
595.100	16803.90	0.296
595.200	16801.08	0.3909
595.300	16798.25	0.657
595.400	16795.43	0.5442
595.500	16792.61	0.2968
595.600	16789.79	0.7483
595.700	16786.97	0.4857
595.800	16784.16	0.6023
595.900	16781.34	0.3788
596.000	16778.52	0.7379
596.100	16775.71	0.761
596.200	16772.90	0.682
596.300	16770.08	0.5637
596.400	16767.27	0.7384
596.500	16764.46	0.8477
596.600	16761.65	0.6517
596.700	16758.84	0.3608
596.800	16756.03	0.5608
596.900	16753.22	0.5734
597.000	16750.42	0.6527
597.100	16747.61	0.4068
597.200	16744.81	0.6164
597.300	16742.01	0.7926
597.400	16739.20	0.5678
597.500	16736.40	0.5783
597.600	16733.60	0.4094
597.700	16730.80	0.5254
597.800	16728.00	0.4619
597.900	16725.20	0.6218
598.000	16722.41	0.4703
598.100	16719.61	0.5029
598.200	16716.82	0.4236
598.300	16714.02	0.6733
598.400	16711.23	0.7672
598.500	16708.44	0.4492
598.600	16705.65	0.7255
598.700	16702.86	0.5289
598.800	16700.07	0.4715
598.900	16697.28	0.6797
599.000	16694.49	0.5748
599.100	16691.70	0.3767
599.200	16688.92	0.5708
599.300	16686.13	0.5403
599.400	16683.35	0.6638
599.500	16680.57	0.6376
599.600	16677.79	0.5899
599.700	16675.00	0.6455
599.800	16672.22	0.6295
599.900	16669.44	0.7697
